OOIBase32 Version 1.0.0.8 Data File
++++++++++++++++++++++++++++++++++++
Date: Friday, January 04, 1980, 01:33:32
User: Valued Ocean Optics Customer
Spectrometer Serial Number: Unknown
Spectrometer Channel: Master
Integration Time (msec): 5
Spectra Averaged: 1
Boxcar Smoothing: 0
Correct for Electrical Dark: Disabled
Time Normalized: Disabled
Dual-beam Reference: Disabled
Reference Channel: Master
>>>>>Begin Spectral Data<<<<<
200.00	0.0000
200.60	0.0000
201.20	68.0000
201.80	67.0000
202.40	69.0000
203.00	63.0000
203.60	68.0000
204.20	66.0000
204.80	70.0000
205.40	68.0000
206.00	67.0000
206.60	67.0000
207.20	70.0000
207.80	70.0000
208.40	68.0000
209.00	69.0000
209.60	65.0000
210.20	68.0000
210.80	65.0000
211.40	60.0000
212.00	67.0000
212.60	70.0000
213.20	69.0000
213.80	65.0000
214.40	68.0000
215.00	67.0000
215.60	68.0000
216.20	62.0000
216.80	66.0000
217.40	65.0000
218.00	67.0000
218.60	67.0000
219.20	71.0000
219.80	72.0000
220.40	68.0000
221.00	68.0000
221.60	70.0000
222.20	74.0000
222.80	67.0000
223.40	64.0000
224.00	68.0000
224.60	69.0000
225.20	68.0000
225.80	70.0000
226.40	71.0000
227.00	66.0000
227.60	69.0000
228.20	69.0000
228.80	71.0000
229.40	71.0000
230.00	66.0000
230.60	66.0000
231.20	66.0000
231.80	69.0000
232.39	67.0000
232.99	61.0000
233.59	67.0000
234.19	71.0000
234.79	67.0000
235.39	67.0000
235.99	66.0000
236.59	69.0000
237.19	65.0000
237.79	66.0000
238.39	69.0000
238.99	73.0000
239.59	66.0000
240.19	69.0000
240.79	68.0000
241.39	66.0000
241.99	69.0000
242.59	74.0000
243.19	64.0000
243.79	69.0000
244.39	70.0000
244.99	65.0000
245.59	69.0000
246.19	69.0000
246.79	71.0000
247.39	67.0000
247.99	68.0000
248.59	72.0000
249.19	70.0000
249.79	63.0000
250.39	70.0000
250.99	69.0000
251.59	71.0000
252.19	69.0000
252.79	65.0000
253.39	71.0000
253.99	75.0000
254.58	70.0000
255.18	65.0000
255.78	68.0000
256.38	67.0000
256.98	63.0000
257.58	68.0000
258.18	67.0000
258.78	68.0000
259.38	69.0000
259.98	69.0000
260.58	67.0000
261.18	67.0000
261.78	70.0000
262.38	69.0000
262.98	69.0000
263.58	72.0000
264.18	71.0000
264.78	66.0000
265.38	66.0000
265.98	66.0000
266.58	66.0000
267.18	69.0000
267.78	68.0000
268.38	66.0000
268.98	69.0000
269.58	69.0000
270.17	68.0000
270.77	63.0000
271.37	66.0000
271.97	68.0000
272.57	65.0000
273.17	66.0000
273.77	70.0000
274.37	66.0000
274.97	66.0000
275.57	69.0000
276.17	67.0000
276.77	66.0000
277.37	73.0000
277.97	69.0000
278.57	71.0000
279.17	68.0000
279.77	67.0000
280.37	71.0000
280.97	67.0000
281.57	71.0000
282.16	69.0000
282.76	67.0000
283.36	70.0000
283.96	66.0000
284.56	66.0000
285.16	68.0000
285.76	69.0000
286.36	70.0000
286.96	66.0000
287.56	67.0000
288.16	66.0000
288.76	68.0000
289.36	71.0000
289.96	68.0000
290.56	72.0000
291.16	69.0000
291.76	71.0000
292.35	72.0000
292.95	68.0000
293.55	72.0000
294.15	69.0000
294.75	67.0000
295.35	67.0000
295.95	69.0000
296.55	69.0000
297.15	67.0000
297.75	72.0000
298.35	65.0000
298.95	67.0000
299.55	65.0000
300.15	72.0000
300.75	67.0000
301.35	67.0000
301.94	67.0000
302.54	71.0000
303.14	66.0000
303.74	67.0000
304.34	64.0000
304.94	65.0000
305.54	69.0000
306.14	66.0000
306.74	68.0000
307.34	67.0000
307.94	68.0000
308.54	68.0000
309.14	65.0000
309.74	67.0000
310.33	67.0000
310.93	69.0000
311.53	65.0000
312.13	68.0000
312.73	68.0000
313.33	69.0000
313.93	67.0000
314.53	65.0000
315.13	69.0000
315.73	69.0000
316.33	69.0000
316.93	66.0000
317.53	68.0000
318.12	64.0000
318.72	68.0000
319.32	68.0000
319.92	71.0000
320.52	70.0000
321.12	68.0000
321.72	65.0000
322.32	65.0000
322.92	64.0000
323.52	65.0000
324.12	71.0000
324.71	65.0000
325.31	67.0000
325.91	71.0000
326.51	66.0000
327.11	65.0000
327.71	64.0000
328.31	67.0000
328.91	69.0000
329.51	66.0000
330.11	70.0000
330.71	71.0000
331.31	73.0000
331.90	67.0000
332.50	67.0000
333.10	65.0000
333.70	66.0000
334.30	68.0000
334.90	73.0000
335.50	69.0000
336.10	68.0000
336.70	72.0000
337.30	67.0000
337.89	68.0000
338.49	72.0000
339.09	66.0000
339.69	65.0000
340.29	70.0000
340.89	73.0000
341.49	71.0000
342.09	67.0000
342.69	69.0000
343.29	72.0000
343.88	69.0000
344.48	71.0000
345.08	68.0000
345.68	71.0000
346.28	71.0000
346.88	70.0000
347.48	71.0000
348.08	67.0000
348.68	71.0000
349.27	72.0000
349.87	67.0000
350.47	70.0000
351.07	72.0000
351.67	75.0000
352.27	68.0000
352.87	70.0000
353.47	68.0000
354.07	68.0000
354.66	71.0000
355.26	67.0000
355.86	69.0000
356.46	70.0000
357.06	73.0000
357.66	65.0000
358.26	68.0000
358.86	69.0000
359.46	65.0000
360.05	65.0000
360.65	68.0000
361.25	71.0000
361.85	72.0000
362.45	70.0000
363.05	69.0000
363.65	70.0000
364.25	66.0000
364.84	66.0000
365.44	69.0000
366.04	67.0000
366.64	67.0000
367.24	66.0000
367.84	69.0000
368.44	74.0000
369.04	73.0000
369.63	70.0000
370.23	64.0000
370.83	66.0000
371.43	71.0000
372.03	70.0000
372.63	71.0000
373.23	70.0000
373.83	71.0000
374.42	66.0000
375.02	64.0000
375.62	67.0000
376.22	73.0000
376.82	71.0000
377.42	72.0000
378.02	70.0000
378.62	69.0000
379.21	65.0000
379.81	70.0000
380.41	72.0000
381.01	69.0000
381.61	69.0000
382.21	69.0000
382.81	70.0000
383.40	66.0000
384.00	69.0000
384.60	70.0000
385.20	67.0000
385.80	66.0000
386.40	68.0000
387.00	67.0000
387.59	77.0000
388.19	68.0000
388.79	70.0000
389.39	71.0000
389.99	67.0000
390.59	72.0000
391.19	71.0000
391.78	67.0000
392.38	71.0000
392.98	68.0000
393.58	65.0000
394.18	65.0000
394.78	69.0000
395.38	68.0000
395.97	66.0000
396.57	71.0000
397.17	69.0000
397.77	63.0000
398.37	69.0000
398.97	63.0000
399.56	74.0000
400.16	70.0000
400.76	67.0000
401.36	71.0000
401.96	70.0000
402.56	65.0000
403.15	67.0000
403.75	72.0000
404.35	66.0000
404.95	68.0000
405.55	70.0000
406.15	67.0000
406.75	67.0000
407.34	69.0000
407.94	68.0000
408.54	69.0000
409.14	71.0000
409.74	70.0000
410.34	64.0000
410.93	62.0000
411.53	67.0000
412.13	69.0000
412.73	64.0000
413.33	67.0000
413.93	66.0000
414.52	75.0000
415.12	67.0000
415.72	66.0000
416.32	63.0000
416.92	66.0000
417.51	71.0000
418.11	67.0000
418.71	68.0000
419.31	67.0000
419.91	65.0000
420.51	66.0000
421.10	72.0000
421.70	68.0000
422.30	72.0000
422.90	69.0000
423.50	71.0000
424.10	63.0000
424.69	65.0000
425.29	75.0000
425.89	74.0000
426.49	70.0000
427.09	70.0000
427.68	70.0000
428.28	70.0000
428.88	69.0000
429.48	71.0000
430.08	67.0000
430.68	66.0000
431.27	65.0000
431.87	67.0000
432.47	68.0000
433.07	67.0000
433.67	67.0000
434.26	70.0000
434.86	69.0000
435.46	71.0000
436.06	68.0000
436.66	69.0000
437.25	68.0000
437.85	72.0000
438.45	67.0000
439.05	69.0000
439.65	71.0000
440.24	70.0000
440.84	65.0000
441.44	71.0000
442.04	73.0000
442.64	67.0000
443.23	68.0000
443.83	69.0000
444.43	68.0000
445.03	71.0000
445.63	71.0000
446.22	66.0000
446.82	70.0000
447.42	67.0000
448.02	69.0000
448.62	70.0000
449.21	67.0000
449.81	67.0000
450.41	70.0000
451.01	67.0000
451.61	67.0000
452.20	67.0000
452.80	67.0000
453.40	67.0000
454.00	73.0000
454.60	66.0000
455.19	67.0000
455.79	68.0000
456.39	68.0000
456.99	67.0000
457.58	67.0000
458.18	69.0000
458.78	70.0000
459.38	71.0000
459.98	65.0000
460.57	71.0000
461.17	69.0000
461.77	66.0000
462.37	69.0000
462.96	74.0000
463.56	70.0000
464.16	70.0000
464.76	72.0000
465.36	70.0000
465.95	72.0000
466.55	70.0000
467.15	65.0000
467.75	67.0000
468.34	70.0000
468.94	71.0000
469.54	66.0000
470.14	70.0000
470.73	71.0000
471.33	69.0000
471.93	71.0000
472.53	70.0000
473.13	69.0000
473.72	69.0000
474.32	67.0000
474.92	71.0000
475.52	68.0000
476.11	74.0000
476.71	71.0000
477.31	66.0000
477.91	66.0000
478.50	69.0000
479.10	65.0000
479.70	73.0000
480.30	68.0000
480.89	71.0000
481.49	70.0000
482.09	66.0000
482.69	74.0000
483.28	70.0000
483.88	73.0000
484.48	70.0000
485.08	68.0000
485.67	71.0000
486.27	68.0000
486.87	66.0000
487.47	70.0000
488.06	67.0000
488.66	69.0000
489.26	67.0000
489.86	65.0000
490.45	70.0000
491.05	70.0000
491.65	68.0000
492.25	74.0000
492.84	69.0000
493.44	63.0000
494.04	62.0000
494.64	72.0000
495.23	70.0000
495.83	73.0000
496.43	64.0000
497.03	68.0000
497.62	67.0000
498.22	67.0000
498.82	68.0000
499.42	68.0000
500.01	65.0000
500.61	69.0000
501.21	68.0000
501.81	66.0000
502.40	76.0000
503.00	67.0000
503.60	68.0000
504.19	68.0000
504.79	65.0000
505.39	73.0000
505.99	69.0000
506.58	71.0000
507.18	71.0000
507.78	71.0000
508.38	66.0000
508.97	64.0000
509.57	69.0000
510.17	70.0000
510.76	69.0000
511.36	70.0000
511.96	66.0000
512.56	67.0000
513.15	67.0000
513.75	67.0000
514.35	68.0000
514.94	69.0000
515.54	69.0000
516.14	67.0000
516.74	68.0000
517.33	76.0000
517.93	70.0000
518.53	65.0000
519.12	70.0000
519.72	73.0000
520.32	66.0000
520.92	67.0000
521.51	67.0000
522.11	67.0000
522.71	63.0000
523.30	67.0000
523.90	69.0000
524.50	70.0000
525.09	69.0000
525.69	67.0000
526.29	70.0000
526.89	67.0000
527.48	74.0000
528.08	65.0000
528.68	69.0000
529.27	70.0000
529.87	71.0000
530.47	69.0000
531.06	73.0000
531.66	70.0000
532.26	70.0000
532.86	68.0000
533.45	70.0000
534.05	71.0000
534.65	68.0000
535.24	72.0000
535.84	72.0000
536.44	71.0000
537.03	66.0000
537.63	67.0000
538.23	67.0000
538.82	67.0000
539.42	65.0000
540.02	68.0000
540.61	66.0000
541.21	68.0000
541.81	66.0000
542.41	66.0000
543.00	65.0000
543.60	63.0000
544.20	63.0000
544.79	70.0000
545.39	70.0000
545.99	68.0000
546.58	69.0000
547.18	65.0000
547.78	68.0000
548.37	67.0000
548.97	68.0000
549.57	67.0000
550.16	72.0000
550.76	65.0000
551.36	71.0000
551.95	67.0000
552.55	69.0000
553.15	70.0000
553.74	65.0000
554.34	68.0000
554.94	69.0000
555.53	65.0000
556.13	69.0000
556.73	63.0000
557.32	70.0000
557.92	68.0000
558.52	66.0000
559.11	71.0000
559.71	70.0000
560.31	68.0000
560.90	68.0000
561.50	68.0000
562.10	69.0000
562.69	67.0000
563.29	66.0000
563.89	71.0000
564.48	70.0000
565.08	69.0000
565.67	66.0000
566.27	70.0000
566.87	71.0000
567.46	67.0000
568.06	70.0000
568.66	72.0000
569.25	71.0000
569.85	70.0000
570.45	68.0000
571.04	72.0000
571.64	64.0000
572.24	71.0000
572.83	70.0000
573.43	70.0000
574.03	70.0000
574.62	68.0000
575.22	66.0000
575.81	65.0000
576.41	72.0000
577.01	69.0000
577.60	66.0000
578.20	68.0000
578.80	68.0000
579.39	66.0000
579.99	70.0000
580.58	68.0000
581.18	68.0000
581.78	64.0000
582.37	71.0000
582.97	68.0000
583.57	67.0000
584.16	68.0000
584.76	65.0000
585.35	67.0000
585.95	68.0000
586.55	71.0000
587.14	68.0000
587.74	65.0000
588.34	65.0000
588.93	67.0000
589.53	67.0000
590.12	74.0000
590.72	72.0000
591.32	71.0000
591.91	67.0000
592.51	66.0000
593.11	69.0000
593.70	72.0000
594.30	71.0000
594.89	67.0000
595.49	72.0000
596.09	73.0000
596.68	67.0000
597.28	68.0000
597.87	69.0000
598.47	68.0000
599.07	66.0000
599.66	67.0000
600.26	68.0000
600.85	68.0000
601.45	70.0000
602.05	70.0000
602.64	68.0000
603.24	71.0000
603.83	66.0000
604.43	71.0000
605.03	67.0000
605.62	72.0000
606.22	71.0000
606.81	65.0000
607.41	67.0000
608.01	65.0000
608.60	67.0000
609.20	68.0000
609.79	67.0000
610.39	69.0000
610.98	72.0000
611.58	68.0000
612.18	68.0000
612.77	71.0000
613.37	70.0000
613.96	67.0000
614.56	64.0000
615.16	70.0000
615.75	66.0000
616.35	68.0000
616.94	70.0000
617.54	71.0000
618.13	70.0000
618.73	72.0000
619.33	68.0000
619.92	67.0000
620.52	68.0000
621.11	72.0000
621.71	70.0000
622.30	65.0000
622.90	67.0000
623.50	71.0000
624.09	66.0000
624.69	74.0000
625.28	73.0000
625.88	70.0000
626.47	66.0000
627.07	66.0000
627.67	67.0000
628.26	70.0000
628.86	67.0000
629.45	67.0000
630.05	68.0000
630.64	71.0000
631.24	67.0000
631.83	67.0000
632.43	67.0000
633.03	68.0000
633.62	73.0000
634.22	72.0000
634.81	68.0000
635.41	72.0000
636.00	62.0000
636.60	66.0000
637.19	66.0000
637.79	64.0000
638.39	72.0000
638.98	71.0000
639.58	66.0000
640.17	73.0000
640.77	72.0000
641.36	69.0000
641.96	71.0000
642.55	66.0000
643.15	71.0000
643.74	71.0000
644.34	68.0000
644.93	65.0000
645.53	71.0000
646.13	72.0000
646.72	68.0000
647.32	64.0000
647.91	67.0000
648.51	70.0000
649.10	67.0000
649.70	70.0000
650.29	71.0000
650.89	64.0000
651.48	67.0000
652.08	67.0000
652.67	63.0000
653.27	67.0000
653.86	65.0000
654.46	71.0000
655.05	71.0000
655.65	69.0000
656.25	69.0000
656.84	68.0000
657.44	65.0000
658.03	67.0000
658.63	67.0000
659.22	63.0000
659.82	71.0000
660.41	68.0000
661.01	69.0000
661.60	70.0000
662.20	67.0000
662.79	71.0000
663.39	66.0000
663.98	70.0000
664.58	70.0000
665.17	69.0000
665.77	64.0000
666.36	74.0000
666.96	72.0000
667.55	71.0000
668.15	65.0000
668.74	71.0000
669.34	68.0000
669.93	68.0000
670.53	66.0000
671.12	65.0000
671.72	71.0000
672.31	68.0000
672.91	74.0000
673.50	68.0000
674.10	71.0000
674.69	70.0000
675.29	73.0000
675.88	66.0000
676.48	62.0000
677.07	66.0000
677.67	68.0000
678.26	72.0000
678.86	72.0000
679.45	64.0000
680.05	69.0000
680.64	70.0000
681.23	63.0000
681.83	76.0000
682.42	67.0000
683.02	68.0000
683.61	68.0000
684.21	68.0000
684.80	68.0000
685.40	68.0000
685.99	69.0000
686.59	67.0000
687.18	67.0000
687.78	73.0000
688.37	71.0000
688.97	70.0000
689.56	66.0000
690.16	68.0000
690.75	69.0000
691.34	62.0000
691.94	70.0000
692.53	67.0000
693.13	69.0000
693.72	73.0000
694.32	71.0000
694.91	69.0000
695.51	70.0000
696.10	67.0000
696.70	66.0000
697.29	70.0000
697.89	72.0000
698.48	71.0000
699.07	67.0000
699.67	70.0000
700.26	71.0000
700.86	71.0000
701.45	68.0000
702.05	71.0000
702.64	75.0000
703.24	67.0000
703.83	64.0000
704.42	69.0000
705.02	71.0000
705.61	69.0000
706.21	71.0000
706.80	69.0000
707.40	69.0000
707.99	66.0000
708.58	71.0000
709.18	71.0000
709.77	71.0000
710.37	71.0000
710.96	72.0000
711.56	66.0000
712.15	66.0000
712.75	66.0000
713.34	64.0000
713.93	65.0000
714.53	68.0000
715.12	67.0000
715.72	73.0000
716.31	71.0000
716.90	67.0000
717.50	66.0000
718.09	70.0000
718.69	69.0000
719.28	69.0000
719.88	63.0000
720.47	68.0000
721.06	67.0000
721.66	70.0000
722.25	70.0000
722.85	70.0000
723.44	69.0000
724.03	73.0000
724.63	68.0000
725.22	68.0000
725.82	69.0000
726.41	66.0000
727.00	67.0000
727.60	67.0000
728.19	69.0000
728.79	69.0000
729.38	69.0000
729.97	68.0000
730.57	64.0000
731.16	70.0000
731.76	67.0000
732.35	72.0000
732.94	67.0000
733.54	66.0000
734.13	66.0000
734.73	69.0000
735.32	69.0000
735.91	72.0000
736.51	68.0000
737.10	66.0000
737.70	71.0000
738.29	67.0000
738.88	66.0000
739.48	70.0000
740.07	67.0000
740.66	65.0000
741.26	63.0000
741.85	69.0000
742.45	72.0000
743.04	70.0000
743.63	72.0000
744.23	71.0000
744.82	65.0000
745.41	70.0000
746.01	69.0000
746.60	67.0000
747.20	71.0000
747.79	71.0000
748.38	74.0000
748.98	71.0000
749.57	65.0000
750.16	67.0000
750.76	65.0000
751.35	71.0000
751.95	71.0000
752.54	64.0000
753.13	66.0000
753.73	67.0000
754.32	70.0000
754.91	66.0000
755.51	67.0000
756.10	73.0000
756.69	67.0000
757.29	71.0000
757.88	65.0000
758.47	70.0000
759.07	69.0000
759.66	66.0000
760.25	66.0000
760.85	74.0000
761.44	70.0000
762.03	72.0000
762.63	68.0000
763.22	69.0000
763.82	70.0000
764.41	70.0000
765.00	69.0000
765.60	69.0000
766.19	70.0000
766.78	70.0000
767.38	66.0000
767.97	69.0000
768.56	68.0000
769.16	72.0000
769.75	66.0000
770.34	67.0000
770.94	67.0000
771.53	74.0000
772.12	68.0000
772.71	70.0000
773.31	67.0000
773.90	71.0000
774.49	62.0000
775.09	64.0000
775.68	71.0000
776.27	69.0000
776.87	68.0000
777.46	65.0000
778.05	63.0000
778.65	67.0000
779.24	67.0000
779.83	66.0000
780.43	71.0000
781.02	75.0000
781.61	69.0000
782.21	70.0000
782.80	66.0000
783.39	65.0000
783.98	71.0000
784.58	70.0000
785.17	63.0000
785.76	69.0000
786.36	71.0000
786.95	70.0000
787.54	67.0000
788.14	65.0000
788.73	71.0000
789.32	71.0000
789.91	69.0000
790.51	69.0000
791.10	69.0000
791.69	66.0000
792.29	70.0000
792.88	67.0000
793.47	74.0000
794.06	71.0000
794.66	67.0000
795.25	65.0000
795.84	66.0000
796.44	67.0000
797.03	69.0000
797.62	71.0000
798.21	66.0000
798.81	71.0000
799.40	67.0000
799.99	70.0000
800.58	72.0000
801.18	69.0000
801.77	65.0000
802.36	69.0000
802.96	68.0000
803.55	68.0000
804.14	68.0000
804.73	66.0000
805.33	68.0000
805.92	67.0000
806.51	62.0000
807.10	68.0000
807.70	72.0000
808.29	69.0000
808.88	69.0000
809.47	72.0000
810.07	65.0000
810.66	67.0000
811.25	66.0000
811.84	64.0000
812.44	68.0000
813.03	69.0000
813.62	69.0000
814.21	72.0000
814.81	64.0000
815.40	68.0000
815.99	66.0000
816.58	69.0000
817.18	68.0000
817.77	66.0000
818.36	67.0000
818.95	69.0000
819.55	64.0000
820.14	69.0000
820.73	64.0000
821.32	66.0000
821.92	70.0000
822.51	64.0000
823.10	69.0000
823.69	68.0000
824.28	70.0000
824.88	68.0000
825.47	69.0000
826.06	71.0000
826.65	69.0000
827.25	67.0000
827.84	69.0000
828.43	68.0000
829.02	68.0000
829.61	69.0000
830.21	69.0000
830.80	70.0000
831.39	74.0000
831.98	68.0000
832.58	72.0000
833.17	70.0000
833.76	70.0000
834.35	70.0000
834.94	75.0000
835.54	73.0000
836.13	68.0000
836.72	70.0000
837.31	70.0000
837.90	65.0000
838.50	65.0000
839.09	63.0000
839.68	70.0000
840.27	71.0000
840.86	66.0000
841.46	66.0000
842.05	65.0000
842.64	69.0000
843.23	71.0000
843.82	66.0000
844.42	74.0000
845.01	69.0000
845.60	67.0000
846.19	67.0000
846.78	71.0000
847.37	70.0000
847.97	67.0000
848.56	71.0000
849.15	68.0000
849.74	68.0000
850.33	73.0000
850.93	64.0000
851.52	68.0000
852.11	72.0000
852.70	69.0000
853.29	68.0000
853.88	68.0000
854.48	67.0000
855.07	69.0000
855.66	68.0000
856.25	69.0000
856.84	67.0000
857.43	69.0000
858.03	72.0000
858.62	64.0000
859.21	66.0000
859.80	66.0000
860.39	64.0000
860.98	72.0000
861.58	64.0000
862.17	64.0000
862.76	69.0000
863.35	67.0000
863.94	67.0000
864.53	68.0000
865.12	65.0000
865.72	63.0000
866.31	66.0000
866.90	68.0000
867.49	70.0000
868.08	70.0000
868.67	68.0000
869.26	67.0000
869.86	73.0000
870.45	73.0000
871.04	68.0000
871.63	64.0000
872.22	67.0000
872.81	67.0000
873.40	68.0000
873.99	71.0000
874.59	67.0000
875.18	71.0000
875.77	67.0000
876.36	68.0000
876.95	69.0000
877.54	67.0000
878.13	70.0000
878.72	71.0000
879.32	67.0000
879.91	71.0000
880.50	70.0000
881.09	72.0000
881.68	64.0000
882.27	65.0000
882.86	66.0000
883.45	66.0000
884.04	68.0000
884.64	64.0000
885.23	65.0000
885.82	65.0000
886.41	69.0000
887.00	67.0000
887.59	65.0000
888.18	70.0000
888.77	69.0000
889.36	72.0000
889.96	68.0000
890.55	69.0000
891.14	66.0000
891.73	72.0000
892.32	67.0000
892.91	67.0000
893.50	70.0000
894.09	70.0000
894.68	71.0000
895.27	67.0000
895.86	70.0000
896.46	68.0000
897.05	69.0000
897.64	62.0000
898.23	66.0000
898.82	70.0000
899.41	69.0000
900.00	69.0000
900.59	72.0000
901.18	67.0000
901.77	69.0000
902.36	72.0000
902.95	67.0000
903.54	68.0000
904.13	71.0000
904.73	63.0000
905.32	69.0000
905.91	69.0000
906.50	68.0000
907.09	71.0000
907.68	67.0000
908.27	77.0000
908.86	70.0000
909.45	66.0000
910.04	65.0000
910.63	70.0000
911.22	70.0000
911.81	72.0000
912.40	68.0000
912.99	69.0000
913.58	66.0000
914.17	64.0000
914.76	72.0000
915.36	71.0000
915.95	70.0000
916.54	67.0000
917.13	65.0000
917.72	69.0000
918.31	70.0000
918.90	66.0000
919.49	67.0000
920.08	67.0000
920.67	69.0000
921.26	67.0000
921.85	66.0000
922.44	66.0000
923.03	73.0000
923.62	66.0000
924.21	68.0000
924.80	68.0000
925.39	66.0000
925.98	67.0000
926.57	69.0000
927.16	72.0000
927.75	68.0000
928.34	67.0000
928.93	69.0000
929.52	71.0000
930.11	64.0000
930.70	72.0000
931.29	69.0000
931.88	68.0000
932.47	66.0000
933.06	65.0000
933.65	67.0000
934.24	66.0000
934.83	71.0000
935.42	62.0000
936.01	65.0000
936.60	74.0000
937.19	69.0000
937.78	71.0000
938.37	67.0000
938.96	66.0000
939.55	68.0000
940.14	66.0000
940.73	67.0000
941.32	69.0000
941.91	70.0000
942.50	67.0000
943.09	70.0000
943.68	69.0000
944.27	67.0000
944.86	67.0000
945.45	67.0000
946.04	69.0000
946.63	72.0000
947.22	74.0000
947.81	69.0000
948.40	70.0000
948.99	65.0000
949.58	70.0000
950.17	71.0000
950.76	64.0000
951.35	69.0000
951.94	69.0000
952.53	67.0000
953.12	69.0000
953.71	71.0000
954.30	70.0000
954.89	68.0000
955.48	66.0000
956.06	67.0000
956.65	66.0000
957.24	71.0000
957.83	67.0000
958.42	72.0000
959.01	67.0000
959.60	68.0000
960.19	74.0000
960.78	70.0000
961.37	66.0000
961.96	71.0000
962.55	68.0000
963.14	68.0000
963.73	67.0000
964.32	69.0000
964.91	69.0000
965.50	66.0000
966.09	69.0000
966.67	67.0000
967.26	70.0000
967.85	72.0000
968.44	69.0000
969.03	67.0000
969.62	69.0000
970.21	63.0000
970.80	66.0000
971.39	69.0000
971.98	68.0000
972.57	67.0000
973.16	71.0000
973.75	74.0000
974.33	66.0000
974.92	67.0000
975.51	65.0000
976.10	65.0000
976.69	67.0000
977.28	68.0000
977.87	71.0000
978.46	66.0000
979.05	63.0000
979.64	66.0000
980.23	70.0000
980.81	67.0000
981.40	71.0000
981.99	69.0000
982.58	72.0000
983.17	64.0000
983.76	64.0000
984.35	72.0000
984.94	68.0000
985.53	69.0000
986.11	72.0000
986.70	68.0000
987.29	68.0000
987.88	67.0000
988.47	69.0000
989.06	72.0000
989.65	72.0000
990.24	65.0000
990.83	67.0000
991.41	70.0000
992.00	66.0000
992.59	67.0000
993.18	67.0000
993.77	67.0000
994.36	69.0000
994.95	67.0000
995.53	68.0000
996.12	71.0000
996.71	68.0000
997.30	67.0000
997.89	67.0000
998.48	69.0000
999.07	66.0000
999.65	73.0000
1000.24	67.0000
1000.83	68.0000
1001.42	69.0000
1002.01	73.0000
1002.60	69.0000
1003.19	66.0000
1003.77	65.0000
1004.36	67.0000
1004.95	70.0000
1005.54	73.0000
1006.13	68.0000
1006.72	71.0000
1007.31	67.0000
1007.89	67.0000
1008.48	70.0000
1009.07	67.0000
1009.66	73.0000
1010.25	71.0000
1010.84	68.0000
1011.42	70.0000
1012.01	68.0000
1012.60	68.0000
1013.19	64.0000
1013.78	67.0000
1014.36	66.0000
1014.95	72.0000
1015.54	69.0000
1016.13	65.0000
1016.72	67.0000
1017.31	76.0000
1017.89	73.0000
1018.48	68.0000
1019.07	69.0000
1019.66	70.0000
1020.25	66.0000
1020.83	65.0000
1021.42	70.0000
1022.01	71.0000
1022.60	64.0000
1023.19	72.0000
1023.77	67.0000
1024.36	68.0000
1024.95	66.0000
1025.54	68.0000
1026.13	67.0000
1026.71	70.0000
1027.30	66.0000
1027.89	65.0000
1028.48	67.0000
1029.07	67.0000
1029.65	65.0000
1030.24	66.0000
1030.83	71.0000
1031.42	67.0000
1032.00	70.0000
1032.59	63.0000
1033.18	67.0000
1033.77	67.0000
1034.36	67.0000
1034.94	68.0000
1035.53	68.0000
1036.12	74.0000
1036.71	72.0000
1037.29	66.0000
1037.88	70.0000
1038.47	74.0000
1039.06	67.0000
1039.65	65.0000
1040.23	67.0000
1040.82	69.0000
1041.41	66.0000
1042.00	65.0000
1042.58	67.0000
1043.17	66.0000
1043.76	65.0000
1044.35	65.0000
1044.93	69.0000
1045.52	70.0000
1046.11	66.0000
1046.70	67.0000
1047.28	69.0000
1047.87	69.0000
1048.46	68.0000
1049.05	67.0000
1049.63	68.0000
1050.22	70.0000
1050.81	68.0000
1051.39	68.0000
1051.98	69.0000
1052.57	70.0000
1053.16	66.0000
1053.74	69.0000
1054.33	66.0000
1054.92	70.0000
1055.51	64.0000
1056.09	69.0000
1056.68	69.0000
1057.27	69.0000
1057.85	69.0000
1058.44	70.0000
1059.03	67.0000
1059.62	69.0000
1060.20	69.0000
1060.79	69.0000
1061.38	68.0000
1061.96	70.0000
1062.55	68.0000
1063.14	72.0000
1063.73	68.0000
1064.31	69.0000
1064.90	67.0000
1065.49	67.0000
1066.07	69.0000
1066.66	68.0000
1067.25	67.0000
1067.83	69.0000
1068.42	69.0000
1069.01	70.0000
1069.59	70.0000
1070.18	67.0000
1070.77	67.0000
1071.36	72.0000
1071.94	69.0000
1072.53	68.0000
1073.12	64.0000
1073.70	68.0000
1074.29	67.0000
1074.88	63.0000
1075.46	66.0000
1076.05	70.0000
1076.64	65.0000
1077.22	67.0000
1077.81	63.0000
1078.40	70.0000
1078.98	69.0000
1079.57	64.0000
1080.16	69.0000
1080.74	71.0000
1081.33	68.0000
1081.92	69.0000
1082.50	66.0000
1083.09	70.0000
1083.68	65.0000
1084.26	68.0000
1084.85	68.0000
1085.44	70.0000
1086.02	64.0000
1086.61	65.0000
1087.19	63.0000
1087.78	67.0000
1088.37	67.0000
1088.95	72.0000
1089.54	70.0000
1090.13	70.0000
1090.71	68.0000
1091.30	71.0000
1091.89	64.0000
1092.47	69.0000
1093.06	68.0000
1093.64	68.0000
1094.23	69.0000
1094.82	68.0000
1095.40	70.0000
1095.99	72.0000
1096.58	65.0000
1097.16	72.0000
1097.75	66.0000
1098.33	69.0000
1098.92	66.0000
1099.51	66.0000
1100.09	69.0000
1100.68	65.0000
1101.27	70.0000
1101.85	68.0000
1102.44	69.0000
1103.02	70.0000
1103.61	64.0000
1104.20	68.0000
1104.78	71.0000
1105.37	65.0000
1105.95	67.0000
1106.54	71.0000
1107.13	66.0000
1107.71	66.0000
1108.30	70.0000
1108.88	70.0000
1109.47	67.0000
1110.05	68.0000
1110.64	67.0000
1111.23	71.0000
1111.81	67.0000
1112.40	67.0000
1112.98	64.0000
1113.57	68.0000
1114.16	70.0000
1114.74	63.0000
1115.33	67.0000
1115.91	68.0000
1116.50	67.0000
1117.08	66.0000
1117.67	67.0000
1118.26	72.0000
1118.84	66.0000
1119.43	64.0000
1120.01	68.0000
1120.60	66.0000
1121.18	63.0000
1121.77	67.0000
1122.35	66.0000
1122.94	64.0000
1123.53	68.0000
1124.11	68.0000
1124.70	66.0000
1125.28	67.0000
1125.87	61.0000
1126.45	70.0000
1127.04	67.0000
1127.62	68.0000
1128.21	69.0000
1128.79	66.0000
1129.38	68.0000
1129.97	67.0000
1130.55	68.0000
1131.14	66.0000
1131.72	71.0000
1132.31	68.0000
1132.89	66.0000
1133.48	65.0000
1134.06	67.0000
1134.65	68.0000
1135.23	64.0000
1135.82	64.0000
1136.40	67.0000
1136.99	66.0000
1137.57	66.0000
1138.16	72.0000
1138.74	67.0000
1139.33	67.0000
1139.91	69.0000
1140.50	65.0000
1141.08	66.0000
1141.67	65.0000
1142.25	68.0000
1142.84	69.0000
1143.42	67.0000
1144.01	65.0000
1144.59	67.0000
1145.18	68.0000
1145.76	67.0000
1146.35	70.0000
1146.93	63.0000
1147.52	69.0000
1148.10	67.0000
1148.69	63.0000
1149.27	71.0000
1149.86	68.0000
1150.44	67.0000
1151.03	64.0000
1151.61	69.0000
1152.20	68.0000
1152.78	74.0000
1153.37	70.0000
1153.95	66.0000
1154.54	64.0000
1155.12	67.0000
1155.71	69.0000
1156.29	69.0000
1156.88	70.0000
1157.46	67.0000
1158.04	69.0000
1158.63	69.0000
1159.21	69.0000
1159.80	67.0000
1160.38	67.0000
1160.97	68.0000
1161.55	68.0000
1162.14	74.0000
1162.72	68.0000
1163.31	71.0000
1163.89	70.0000
1164.47	69.0000
1165.06	67.0000
1165.64	70.0000
1166.23	66.0000
1166.81	72.0000
1167.40	67.0000
1167.98	70.0000
1168.56	63.0000
1169.15	68.0000
1169.73	69.0000
1170.32	71.0000
1170.90	67.0000
1171.49	73.0000
1172.07	71.0000
1172.65	73.0000
1173.24	67.0000
1173.82	69.0000
1174.41	67.0000
1174.99	70.0000
1175.58	67.0000
1176.16	62.0000
1176.74	65.0000
1177.33	70.0000
1177.91	72.0000
1178.50	71.0000
1179.08	70.0000
1179.66	65.0000
1180.25	67.0000
1180.83	66.0000
1181.42	70.0000
1182.00	71.0000
1182.58	67.0000
1183.17	67.0000
1183.75	66.0000
1184.34	67.0000
1184.92	64.0000
1185.50	62.0000
1186.09	72.0000
1186.67	68.0000
1187.25	64.0000
1187.84	66.0000
1188.42	70.0000
1189.01	65.0000
1189.59	67.0000
1190.17	65.0000
1190.76	67.0000
1191.34	70.0000
1191.92	69.0000
1192.51	67.0000
1193.09	64.0000
1193.68	67.0000
1194.26	71.0000
1194.84	71.0000
1195.43	73.0000
1196.01	71.0000
1196.59	70.0000
1197.18	71.0000
1197.76	67.0000
1198.34	65.0000
1198.93	69.0000
1199.51	71.0000
1200.09	65.0000
1200.68	61.0000
1201.26	65.0000
1201.84	64.0000
1202.43	70.0000
1203.01	68.0000
1203.59	72.0000
1204.18	73.0000
1204.76	62.0000
1205.34	64.0000
1205.93	62.0000
1206.51	66.0000
1207.09	72.0000
1207.68	69.0000
1208.26	63.0000
1208.84	67.0000
1209.43	70.0000
1210.01	71.0000
1210.59	76.0000
1211.18	68.0000
1211.76	67.0000
1212.34	70.0000
1212.93	72.0000
1213.51	69.0000
1214.09	69.0000
1214.68	70.0000
1215.26	69.0000
1215.84	67.0000
1216.42	64.0000
1217.01	66.0000
1217.59	66.0000
1218.17	72.0000
1218.76	72.0000
1219.34	71.0000
1219.92	66.0000
1220.51	69.0000
1221.09	70.0000
1221.67	68.0000
1222.25	68.0000
1222.84	75.0000
1223.42	69.0000
1224.00	70.0000
1224.59	75.0000
1225.17	72.0000
1225.75	71.0000
1226.33	70.0000
1226.92	71.0000
1227.50	67.0000
1228.08	72.0000
1228.66	65.0000
1229.25	67.0000
1229.83	66.0000
1230.41	68.0000
1230.99	66.0000
1231.58	70.0000
1232.16	67.0000
1232.74	63.0000
1233.32	70.0000
1233.91	64.0000
1234.49	67.0000
1235.07	67.0000
1235.65	71.0000
1236.24	67.0000
1236.82	68.0000
1237.40	65.0000
1237.98	64.0000
1238.57	66.0000
1239.15	64.0000
1239.73	68.0000
1240.31	65.0000
1240.90	71.0000
1241.48	71.0000
1242.06	68.0000
1242.64	65.0000
1243.22	65.0000
1243.81	65.0000
1244.39	68.0000
1244.97	71.0000
1245.55	69.0000
1246.14	67.0000
1246.72	69.0000
1247.30	69.0000
1247.88	71.0000
1248.46	62.0000
1249.05	64.0000
1249.63	70.0000
1250.21	62.0000
1250.79	72.0000
1251.37	70.0000
1251.96	66.0000
1252.54	67.0000
1253.12	66.0000
1253.70	71.0000
1254.28	69.0000
1254.87	68.0000
1255.45	63.0000
1256.03	71.0000
1256.61	66.0000
1257.19	72.0000
1257.78	68.0000
1258.36	63.0000
1258.94	67.0000
1259.52	66.0000
1260.10	68.0000
1260.68	69.0000
1261.27	68.0000
1261.85	71.0000
1262.43	68.0000
1263.01	67.0000
1263.59	67.0000
1264.17	69.0000
1264.76	67.0000
1265.34	65.0000
1265.92	69.0000
1266.50	65.0000
1267.08	71.0000
1267.66	66.0000
1268.25	68.0000
1268.83	71.0000
1269.41	67.0000
1269.99	67.0000
1270.57	70.0000
1271.15	73.0000
1271.73	73.0000
1272.32	70.0000
1272.90	68.0000
1273.48	63.0000
1274.06	70.0000
1274.64	73.0000
1275.22	68.0000
1275.80	69.0000
1276.38	68.0000
1276.97	69.0000
1277.55	70.0000
1278.13	69.0000
1278.71	67.0000
1279.29	66.0000
1279.87	64.0000
1280.45	68.0000
1281.03	72.0000
1281.62	69.0000
1282.20	69.0000
1282.78	68.0000
1283.36	65.0000
1283.94	70.0000
1284.52	68.0000
1285.10	69.0000
1285.68	69.0000
1286.26	71.0000
1286.84	65.0000
1287.43	68.0000
1288.01	69.0000
1288.59	67.0000
1289.17	67.0000
1289.75	67.0000
1290.33	66.0000
1290.91	72.0000
1291.49	73.0000
1292.07	68.0000
1292.65	67.0000
1293.23	69.0000
1293.81	69.0000
1294.40	70.0000
1294.98	65.0000
1295.56	70.0000
1296.14	68.0000
1296.72	67.0000
1297.30	68.0000
1297.88	67.0000
1298.46	70.0000
1299.04	63.0000
1299.62	67.0000
1300.20	69.0000
1300.78	71.0000
1301.36	68.0000
1301.94	71.0000
1302.52	72.0000
1303.10	67.0000
1303.68	76.0000
1304.27	70.0000
1304.85	65.0000
1305.43	67.0000
1306.01	69.0000
1306.59	67.0000
1307.17	72.0000
1307.75	66.0000
1308.33	68.0000
1308.91	69.0000
1309.49	70.0000
1310.07	67.0000
1310.65	66.0000
1311.23	68.0000
1311.81	71.0000
1312.39	72.0000
1312.97	67.0000
1313.55	68.0000
1314.13	69.0000
1314.71	68.0000
1315.29	68.0000
1315.87	69.0000
1316.45	71.0000
1317.03	67.0000
1317.61	70.0000
1318.19	65.0000
1318.77	72.0000
1319.35	70.0000
1319.93	70.0000
1320.51	63.0000
1321.09	70.0000
1321.67	70.0000
1322.25	68.0000
1322.83	67.0000
1323.41	68.0000
1323.99	71.0000
1324.57	67.0000
1325.15	71.0000
1325.73	67.0000
1326.31	65.0000
1326.89	63.0000
1327.47	69.0000
1328.05	68.0000
1328.63	68.0000
1329.21	67.0000
1329.79	72.0000
1330.37	67.0000
1330.95	68.0000
1331.53	69.0000
1332.11	71.0000
1332.68	65.0000
1333.26	69.0000
1333.84	67.0000
1334.42	73.0000
1335.00	74.0000
1335.58	68.0000
1336.16	67.0000
1336.74	65.0000
1337.32	66.0000
1337.90	68.0000
1338.48	67.0000
1339.06	68.0000
1339.64	68.0000
1340.22	71.0000
1340.80	66.0000
1341.38	68.0000
1341.96	71.0000
1342.53	65.0000
1343.11	66.0000
1343.69	71.0000
1344.27	69.0000
1344.85	66.0000
1345.43	68.0000
1346.01	63.0000
1346.59	70.0000
1347.17	68.0000
1347.75	68.0000
1348.33	70.0000
1348.91	70.0000
1349.48	75.0000
1350.06	70.0000
1350.64	70.0000
1351.22	73.0000
1351.80	68.0000
1352.38	72.0000
1352.96	69.0000
1353.54	68.0000
1354.12	70.0000
1354.69	70.0000
1355.27	69.0000
1355.85	69.0000
1356.43	68.0000
1357.01	68.0000
1357.59	68.0000
1358.17	67.0000
1358.75	69.0000
1359.32	65.0000
1359.90	68.0000
1360.48	67.0000
1361.06	66.0000
1361.64	65.0000
1362.22	69.0000
1362.80	67.0000
1363.38	71.0000
1363.95	73.0000
1364.53	66.0000
1365.11	69.0000
1365.69	70.0000
1366.27	65.0000
1366.85	69.0000
1367.43	70.0000
1368.00	69.0000
1368.58	68.0000
1369.16	70.0000
1369.74	65.0000
1370.32	70.0000
1370.90	70.0000
1371.47	68.0000
1372.05	72.0000
1372.63	66.0000
1373.21	71.0000
1373.79	71.0000
1374.37	67.0000
1374.94	70.0000
1375.52	72.0000
1376.10	70.0000
1376.68	68.0000
1377.26	69.0000
1377.83	68.0000
1378.41	66.0000
1378.99	66.0000
1379.57	67.0000
1380.15	65.0000
1380.72	67.0000
1381.30	72.0000
1381.88	68.0000
1382.46	72.0000
1383.04	68.0000
1383.61	70.0000
1384.19	67.0000
1384.77	66.0000
1385.35	65.0000
1385.93	68.0000
1386.50	66.0000
1387.08	67.0000
1387.66	71.0000
1388.24	69.0000
1388.82	68.0000
1389.39	67.0000
1389.97	71.0000
1390.55	67.0000
1391.13	65.0000
1391.70	61.0000
1392.28	65.0000
1392.86	72.0000
1393.44	66.0000
1394.01	68.0000
1394.59	64.0000
1395.17	64.0000
1395.75	68.0000
1396.32	62.0000
1396.90	69.0000
1397.48	74.0000
1398.06	67.0000
1398.63	68.0000
1399.21	70.0000
1399.79	69.0000
1400.37	69.0000
1400.94	71.0000
1401.52	71.0000
1402.10	67.0000
1402.68	70.0000
1403.25	64.0000
1403.83	72.0000
1404.41	69.0000
1404.99	70.0000
1405.56	67.0000
1406.14	67.0000
1406.72	66.0000
1407.29	69.0000
1407.87	67.0000
1408.45	70.0000
1409.03	67.0000
1409.60	66.0000
1410.18	66.0000
>>>>>End Spectral Data<<<<<
