OOIBase32 Version 1.0.0.8 Data File
++++++++++++++++++++++++++++++++++++
Date: Friday, January 04, 1980, 01:57:06
User: Valued Ocean Optics Customer
Spectrometer Serial Number: Unknown
Spectrometer Channel: Master
Integration Time (msec): 5
Spectra Averaged: 1
Boxcar Smoothing: 0
Correct for Electrical Dark: Disabled
Time Normalized: Disabled
Dual-beam Reference: Disabled
Reference Channel: Master
>>>>>Begin Spectral Data<<<<<
179.00	0.0000
179.38	0.0000
179.75	53.0000
180.13	54.0000
180.51	57.0000
180.88	51.0000
181.26	53.0000
181.64	56.0000
182.02	55.0000
182.39	55.0000
182.77	58.0000
183.15	53.0000
183.52	54.0000
183.90	55.0000
184.28	58.0000
184.65	58.0000
185.03	57.0000
185.41	56.0000
185.78	52.0000
186.16	50.0000
186.53	55.0000
186.91	53.0000
187.29	57.0000
187.66	57.0000
188.04	58.0000
188.42	58.0000
188.79	53.0000
189.17	56.0000
189.55	59.0000
189.92	58.0000
190.30	55.0000
190.67	56.0000
191.05	62.0000
191.43	56.0000
191.80	58.0000
192.18	61.0000
192.56	57.0000
192.93	57.0000
193.31	57.0000
193.68	58.0000
194.06	60.0000
194.44	59.0000
194.81	59.0000
195.19	56.0000
195.56	54.0000
195.94	56.0000
196.32	55.0000
196.69	58.0000
197.07	56.0000
197.44	56.0000
197.82	56.0000
198.19	61.0000
198.57	57.0000
198.95	56.0000
199.32	57.0000
199.70	57.0000
200.07	58.0000
200.45	54.0000
200.82	60.0000
201.20	60.0000
201.57	60.0000
201.95	55.0000
202.33	55.0000
202.70	57.0000
203.08	60.0000
203.45	59.0000
203.83	60.0000
204.20	55.0000
204.58	59.0000
204.95	60.0000
205.33	56.0000
205.70	59.0000
206.08	56.0000
206.45	59.0000
206.83	55.0000
207.20	55.0000
207.58	57.0000
207.95	57.0000
208.33	60.0000
208.70	59.0000
209.08	63.0000
209.45	58.0000
209.83	60.0000
210.20	57.0000
210.58	59.0000
210.95	62.0000
211.33	60.0000
211.70	58.0000
212.08	57.0000
212.45	59.0000
212.83	57.0000
213.20	57.0000
213.58	55.0000
213.95	59.0000
214.33	58.0000
214.70	57.0000
215.07	61.0000
215.45	57.0000
215.82	57.0000
216.20	63.0000
216.57	55.0000
216.95	59.0000
217.32	59.0000
217.70	59.0000
218.07	59.0000
218.44	63.0000
218.82	58.0000
219.19	54.0000
219.57	62.0000
219.94	58.0000
220.32	59.0000
220.69	61.0000
221.06	56.0000
221.44	54.0000
221.81	58.0000
222.19	60.0000
222.56	60.0000
222.93	55.0000
223.31	57.0000
223.68	61.0000
224.06	65.0000
224.43	61.0000
224.80	57.0000
225.18	54.0000
225.55	60.0000
225.92	62.0000
226.30	58.0000
226.67	55.0000
227.05	52.0000
227.42	56.0000
227.79	56.0000
228.17	59.0000
228.54	59.0000
228.91	62.0000
229.29	58.0000
229.66	58.0000
230.03	59.0000
230.41	58.0000
230.78	58.0000
231.15	60.0000
231.53	57.0000
231.90	63.0000
232.27	60.0000
232.65	57.0000
233.02	60.0000
233.39	54.0000
233.77	61.0000
234.14	59.0000
234.51	57.0000
234.89	54.0000
235.26	57.0000
235.63	64.0000
236.01	59.0000
236.38	64.0000
236.75	64.0000
237.12	63.0000
237.50	54.0000
237.87	55.0000
238.24	61.0000
238.62	56.0000
238.99	57.0000
239.36	59.0000
239.73	58.0000
240.11	56.0000
240.48	58.0000
240.85	52.0000
241.23	60.0000
241.60	56.0000
241.97	56.0000
242.34	61.0000
242.72	59.0000
243.09	56.0000
243.46	58.0000
243.83	63.0000
244.21	58.0000
244.58	55.0000
244.95	56.0000
245.32	58.0000
245.70	58.0000
246.07	61.0000
246.44	56.0000
246.81	55.0000
247.18	56.0000
247.56	56.0000
247.93	57.0000
248.30	58.0000
248.67	57.0000
249.04	58.0000
249.42	58.0000
249.79	56.0000
250.16	56.0000
250.53	57.0000
250.90	60.0000
251.28	62.0000
251.65	57.0000
252.02	56.0000
252.39	59.0000
252.76	55.0000
253.14	54.0000
253.51	57.0000
253.88	60.0000
254.25	57.0000
254.62	58.0000
254.99	57.0000
255.37	54.0000
255.74	58.0000
256.11	61.0000
256.48	57.0000
256.85	52.0000
257.22	56.0000
257.59	59.0000
257.97	65.0000
258.34	62.0000
258.71	62.0000
259.08	61.0000
259.45	57.0000
259.82	60.0000
260.19	61.0000
260.56	58.0000
260.94	57.0000
261.31	58.0000
261.68	57.0000
262.05	65.0000
262.42	56.0000
262.79	64.0000
263.16	63.0000
263.53	63.0000
263.90	65.0000
264.28	63.0000
264.65	65.0000
265.02	62.0000
265.39	62.0000
265.76	62.0000
266.13	59.0000
266.50	64.0000
266.87	65.0000
267.24	65.0000
267.61	66.0000
267.98	67.0000
268.35	63.0000
268.72	65.0000
269.09	63.0000
269.46	66.0000
269.84	66.0000
270.21	64.0000
270.58	67.0000
270.95	70.0000
271.32	67.0000
271.69	66.0000
272.06	70.0000
272.43	70.0000
272.80	66.0000
273.17	70.0000
273.54	64.0000
273.91	67.0000
274.28	73.0000
274.65	70.0000
275.02	67.0000
275.39	67.0000
275.76	73.0000
276.13	72.0000
276.50	69.0000
276.87	71.0000
277.24	73.0000
277.61	73.0000
277.98	73.0000
278.35	66.0000
278.72	75.0000
279.09	73.0000
279.46	70.0000
279.83	76.0000
280.20	64.0000
280.57	75.0000
280.94	76.0000
281.31	75.0000
281.67	72.0000
282.04	70.0000
282.41	75.0000
282.78	73.0000
283.15	70.0000
283.52	78.0000
283.89	76.0000
284.26	77.0000
284.63	74.0000
285.00	74.0000
285.37	71.0000
285.74	73.0000
286.11	76.0000
286.48	75.0000
286.85	74.0000
287.21	74.0000
287.58	79.0000
287.95	76.0000
288.32	77.0000
288.69	74.0000
289.06	74.0000
289.43	75.0000
289.80	76.0000
290.17	78.0000
290.54	77.0000
290.90	77.0000
291.27	77.0000
291.64	75.0000
292.01	79.0000
292.38	77.0000
292.75	73.0000
293.12	79.0000
293.48	77.0000
293.85	77.0000
294.22	79.0000
294.59	76.0000
294.96	73.0000
295.33	76.0000
295.70	78.0000
296.06	75.0000
296.43	70.0000
296.80	77.0000
297.17	74.0000
297.54	77.0000
297.91	77.0000
298.27	75.0000
298.64	78.0000
299.01	77.0000
299.38	81.0000
299.75	76.0000
300.11	80.0000
300.48	81.0000
300.85	81.0000
301.22	79.0000
301.59	80.0000
301.95	78.0000
302.32	71.0000
302.69	77.0000
303.06	83.0000
303.43	80.0000
303.79	74.0000
304.16	80.0000
304.53	87.0000
304.90	82.0000
305.26	81.0000
305.63	76.0000
306.00	79.0000
306.37	83.0000
306.73	77.0000
307.10	85.0000
307.47	84.0000
307.84	81.0000
308.20	81.0000
308.57	86.0000
308.94	87.0000
309.31	83.0000
309.67	85.0000
310.04	85.0000
310.41	81.0000
310.77	83.0000
311.14	79.0000
311.51	80.0000
311.88	87.0000
312.24	81.0000
312.61	80.0000
312.98	82.0000
313.34	83.0000
313.71	82.0000
314.08	80.0000
314.44	82.0000
314.81	77.0000
315.18	83.0000
315.55	85.0000
315.91	86.0000
316.28	90.0000
316.65	88.0000
317.01	90.0000
317.38	85.0000
317.75	86.0000
318.11	85.0000
318.48	86.0000
318.84	91.0000
319.21	86.0000
319.58	85.0000
319.94	85.0000
320.31	89.0000
320.68	84.0000
321.04	84.0000
321.41	89.0000
321.78	82.0000
322.14	89.0000
322.51	89.0000
322.87	91.0000
323.24	92.0000
323.61	90.0000
323.97	88.0000
324.34	88.0000
324.70	87.0000
325.07	92.0000
325.44	87.0000
325.80	96.0000
326.17	88.0000
326.53	92.0000
326.90	87.0000
327.27	92.0000
327.63	87.0000
328.00	92.0000
328.36	90.0000
328.73	90.0000
329.09	87.0000
329.46	91.0000
329.83	93.0000
330.19	92.0000
330.56	94.0000
330.92	92.0000
331.29	98.0000
331.65	94.0000
332.02	92.0000
332.38	89.0000
332.75	96.0000
333.11	93.0000
333.48	93.0000
333.84	95.0000
334.21	90.0000
334.58	92.0000
334.94	89.0000
335.31	96.0000
335.67	98.0000
336.04	96.0000
336.40	96.0000
336.77	97.0000
337.13	99.0000
337.50	95.0000
337.86	95.0000
338.22	100.0000
338.59	100.0000
338.95	97.0000
339.32	93.0000
339.68	95.0000
340.05	98.0000
340.41	95.0000
340.78	98.0000
341.14	101.0000
341.51	97.0000
341.87	102.0000
342.24	106.0000
342.60	104.0000
342.96	100.0000
343.33	103.0000
343.69	102.0000
344.06	103.0000
344.42	101.0000
344.79	103.0000
345.15	103.0000
345.51	103.0000
345.88	108.0000
346.24	108.0000
346.61	105.0000
346.97	111.0000
347.34	105.0000
347.70	109.0000
348.06	112.0000
348.43	110.0000
348.79	110.0000
349.16	115.0000
349.52	109.0000
349.88	113.0000
350.25	111.0000
350.61	113.0000
350.97	108.0000
351.34	111.0000
351.70	115.0000
352.07	114.0000
352.43	116.0000
352.79	122.0000
353.16	116.0000
353.52	113.0000
353.88	114.0000
354.25	117.0000
354.61	120.0000
354.97	115.0000
355.34	120.0000
355.70	122.0000
356.06	121.0000
356.43	120.0000
356.79	124.0000
357.15	121.0000
357.52	121.0000
357.88	124.0000
358.24	123.0000
358.60	127.0000
358.97	124.0000
359.33	130.0000
359.69	129.0000
360.06	130.0000
360.42	127.0000
360.78	132.0000
361.14	136.0000
361.51	133.0000
361.87	133.0000
362.23	139.0000
362.60	139.0000
362.96	133.0000
363.32	127.0000
363.68	137.0000
364.05	143.0000
364.41	140.0000
364.77	147.0000
365.13	144.0000
365.50	153.0000
365.86	147.0000
366.22	150.0000
366.58	150.0000
366.95	151.0000
367.31	154.0000
367.67	155.0000
368.03	152.0000
368.39	157.0000
368.76	150.0000
369.12	146.0000
369.48	153.0000
369.84	159.0000
370.20	156.0000
370.57	154.0000
370.93	158.0000
371.29	157.0000
371.65	162.0000
372.01	160.0000
372.38	160.0000
372.74	170.0000
373.10	151.0000
373.46	163.0000
373.82	164.0000
374.18	159.0000
374.55	156.0000
374.91	162.0000
375.27	165.0000
375.63	163.0000
375.99	155.0000
376.35	165.0000
376.71	163.0000
377.08	164.0000
377.44	167.0000
377.80	175.0000
378.16	170.0000
378.52	177.0000
378.88	177.0000
379.24	174.0000
379.60	182.0000
379.97	196.0000
380.33	190.0000
380.69	178.0000
381.05	182.0000
381.41	198.0000
381.77	186.0000
382.13	190.0000
382.49	191.0000
382.85	179.0000
383.21	189.0000
383.57	176.0000
383.94	202.0000
384.30	194.0000
384.66	184.0000
385.02	182.0000
385.38	187.0000
385.74	192.0000
386.10	192.0000
386.46	202.0000
386.82	203.0000
387.18	202.0000
387.54	203.0000
387.90	204.0000
388.26	202.0000
388.62	203.0000
388.98	200.0000
389.34	203.0000
389.70	210.0000
390.06	192.0000
390.42	195.0000
390.78	204.0000
391.14	210.0000
391.50	209.0000
391.86	227.0000
392.22	231.0000
392.58	232.0000
392.94	204.0000
393.30	198.0000
393.66	211.0000
394.02	212.0000
394.38	186.0000
394.74	207.0000
395.10	205.0000
395.46	210.0000
395.82	219.0000
396.18	200.0000
396.54	225.0000
396.90	228.0000
397.26	220.0000
397.62	227.0000
397.98	243.0000
398.34	207.0000
398.70	221.0000
399.05	195.0000
399.41	202.0000
399.77	205.0000
400.13	213.0000
400.49	219.0000
400.85	223.0000
401.21	203.0000
401.57	228.0000
401.93	205.0000
402.29	202.0000
402.65	205.0000
403.00	224.0000
403.36	217.0000
403.72	216.0000
404.08	235.0000
404.44	222.0000
404.80	226.0000
405.16	230.0000
405.52	221.0000
405.87	231.0000
406.23	217.0000
406.59	205.0000
406.95	216.0000
407.31	217.0000
407.67	224.0000
408.03	219.0000
408.38	222.0000
408.74	243.0000
409.10	239.0000
409.46	228.0000
409.82	227.0000
410.17	226.0000
410.53	209.0000
410.89	219.0000
411.25	195.0000
411.61	215.0000
411.97	232.0000
412.32	233.0000
412.68	234.0000
413.04	217.0000
413.40	204.0000
413.75	210.0000
414.11	210.0000
414.47	207.0000
414.83	229.0000
415.19	216.0000
415.54	204.0000
415.90	237.0000
416.26	223.0000
416.62	220.0000
416.97	199.0000
417.33	239.0000
417.69	231.0000
418.05	226.0000
418.40	207.0000
418.76	211.0000
419.12	231.0000
419.48	237.0000
419.83	251.0000
420.19	230.0000
420.55	237.0000
420.90	266.0000
421.26	241.0000
421.62	229.0000
421.98	243.0000
422.33	254.0000
422.69	266.0000
423.05	247.0000
423.40	221.0000
423.76	211.0000
424.12	238.0000
424.47	235.0000
424.83	223.0000
425.19	225.0000
425.54	218.0000
425.90	246.0000
426.26	241.0000
426.61	257.0000
426.97	194.0000
427.33	231.0000
427.68	232.0000
428.04	259.0000
428.40	264.0000
428.75	271.0000
429.11	252.0000
429.47	287.0000
429.82	271.0000
430.18	256.0000
430.53	248.0000
430.89	248.0000
431.25	236.0000
431.60	239.0000
431.96	236.0000
432.31	240.0000
432.67	256.0000
433.03	270.0000
433.38	244.0000
433.74	252.0000
434.09	248.0000
434.45	244.0000
434.81	236.0000
435.16	258.0000
435.52	237.0000
435.87	229.0000
436.23	226.0000
436.58	225.0000
436.94	240.0000
437.30	257.0000
437.65	257.0000
438.01	259.0000
438.36	240.0000
438.72	237.0000
439.07	223.0000
439.43	240.0000
439.78	259.0000
440.14	280.0000
440.49	245.0000
440.85	262.0000
441.20	264.0000
441.56	246.0000
441.91	276.0000
442.27	252.0000
442.62	256.0000
442.98	263.0000
443.33	249.0000
443.69	269.0000
444.04	255.0000
444.40	247.0000
444.75	264.0000
445.11	270.0000
445.46	279.0000
445.82	272.0000
446.17	263.0000
446.53	269.0000
446.88	290.0000
447.23	233.0000
447.59	244.0000
447.94	245.0000
448.30	248.0000
448.65	248.0000
449.01	261.0000
449.36	270.0000
449.72	275.0000
450.07	285.0000
450.42	268.0000
450.78	259.0000
451.13	275.0000
451.49	255.0000
451.84	255.0000
452.19	242.0000
452.55	250.0000
452.90	254.0000
453.26	279.0000
453.61	282.0000
453.96	246.0000
454.32	273.0000
454.67	262.0000
455.02	240.0000
455.38	252.0000
455.73	247.0000
456.09	278.0000
456.44	277.0000
456.79	273.0000
457.15	262.0000
457.50	263.0000
457.85	271.0000
458.21	268.0000
458.56	263.0000
458.91	257.0000
459.27	246.0000
459.62	255.0000
459.97	262.0000
460.32	264.0000
460.68	248.0000
461.03	241.0000
461.38	251.0000
461.74	270.0000
462.09	270.0000
462.44	253.0000
462.80	265.0000
463.15	264.0000
463.50	256.0000
463.85	278.0000
464.21	280.0000
464.56	291.0000
464.91	252.0000
465.26	262.0000
465.62	267.0000
465.97	283.0000
466.32	268.0000
466.67	265.0000
467.03	269.0000
467.38	268.0000
467.73	260.0000
468.08	271.0000
468.44	273.0000
468.79	271.0000
469.14	258.0000
469.49	261.0000
469.85	264.0000
470.20	291.0000
470.55	287.0000
470.90	287.0000
471.25	276.0000
471.61	289.0000
471.96	282.0000
472.31	298.0000
472.66	295.0000
473.01	304.0000
473.36	318.0000
473.72	307.0000
474.07	311.0000
474.42	310.0000
474.77	327.0000
475.12	319.0000
475.47	326.0000
475.83	328.0000
476.18	324.0000
476.53	325.0000
476.88	341.0000
477.23	345.0000
477.58	336.0000
477.93	339.0000
478.28	333.0000
478.64	348.0000
478.99	354.0000
479.34	363.0000
479.69	364.0000
480.04	367.0000
480.39	372.0000
480.74	373.0000
481.09	386.0000
481.44	377.0000
481.79	383.0000
482.15	373.0000
482.50	384.0000
482.85	384.0000
483.20	411.0000
483.55	410.0000
483.90	431.0000
484.25	493.0000
484.60	532.0000
484.95	587.0000
485.30	565.0000
485.65	517.0000
486.00	488.0000
486.35	446.0000
486.70	423.0000
487.05	431.0000
487.40	418.0000
487.75	420.0000
488.10	411.0000
488.45	410.0000
488.80	408.0000
489.15	425.0000
489.50	420.0000
489.85	429.0000
490.20	421.0000
490.55	427.0000
490.90	423.0000
491.25	424.0000
491.60	422.0000
491.95	412.0000
492.30	425.0000
492.65	427.0000
493.00	422.0000
493.35	416.0000
493.70	426.0000
494.05	428.0000
494.40	433.0000
494.75	443.0000
495.10	442.0000
495.45	438.0000
495.80	435.0000
496.15	439.0000
496.50	433.0000
496.84	423.0000
497.19	431.0000
497.54	442.0000
497.89	441.0000
498.24	443.0000
498.59	445.0000
498.94	441.0000
499.29	435.0000
499.64	433.0000
499.99	435.0000
500.33	447.0000
500.68	433.0000
501.03	444.0000
501.38	437.0000
501.73	456.0000
502.08	441.0000
502.43	453.0000
502.77	443.0000
503.12	448.0000
503.47	450.0000
503.82	456.0000
504.17	445.0000
504.52	450.0000
504.86	449.0000
505.21	456.0000
505.56	450.0000
505.91	449.0000
506.26	442.0000
506.61	444.0000
506.95	447.0000
507.30	441.0000
507.65	443.0000
508.00	450.0000
508.35	454.0000
508.69	446.0000
509.04	451.0000
509.39	453.0000
509.74	458.0000
510.08	455.0000
510.43	463.0000
510.78	466.0000
511.13	451.0000
511.47	448.0000
511.82	455.0000
512.17	451.0000
512.52	452.0000
512.86	462.0000
513.21	455.0000
513.56	455.0000
513.91	452.0000
514.25	455.0000
514.60	457.0000
514.95	446.0000
515.30	461.0000
515.64	457.0000
515.99	474.0000
516.34	478.0000
516.68	465.0000
517.03	457.0000
517.38	468.0000
517.72	467.0000
518.07	466.0000
518.42	473.0000
518.76	482.0000
519.11	467.0000
519.46	467.0000
519.80	461.0000
520.15	466.0000
520.50	477.0000
520.84	465.0000
521.19	465.0000
521.54	472.0000
521.88	467.0000
522.23	479.0000
522.58	483.0000
522.92	466.0000
523.27	478.0000
523.61	482.0000
523.96	463.0000
524.31	478.0000
524.65	478.0000
525.00	473.0000
525.34	465.0000
525.69	466.0000
526.04	483.0000
526.38	486.0000
526.73	471.0000
527.07	481.0000
527.42	472.0000
527.76	487.0000
528.11	491.0000
528.46	481.0000
528.80	488.0000
529.15	479.0000
529.49	460.0000
529.84	472.0000
530.18	479.0000
530.53	469.0000
530.87	474.0000
531.22	483.0000
531.56	486.0000
531.91	489.0000
532.25	487.0000
532.60	490.0000
532.94	490.0000
533.29	489.0000
533.63	493.0000
533.98	489.0000
534.32	495.0000
534.67	508.0000
535.01	486.0000
535.36	485.0000
535.70	475.0000
536.05	489.0000
536.39	494.0000
536.74	489.0000
537.08	484.0000
537.43	483.0000
537.77	499.0000
538.12	497.0000
538.46	500.0000
538.80	500.0000
539.15	492.0000
539.49	487.0000
539.84	495.0000
540.18	499.0000
540.53	491.0000
540.87	489.0000
541.21	511.0000
541.56	499.0000
541.90	507.0000
542.25	504.0000
542.59	508.0000
542.93	504.0000
543.28	498.0000
543.62	492.0000
543.97	502.0000
544.31	505.0000
544.65	491.0000
545.00	508.0000
545.34	503.0000
545.68	497.0000
546.03	492.0000
546.37	513.0000
546.71	508.0000
547.06	515.0000
547.40	515.0000
547.74	513.0000
548.09	510.0000
548.43	504.0000
548.77	490.0000
549.12	500.0000
549.46	504.0000
549.80	505.0000
550.15	489.0000
550.49	490.0000
550.83	490.0000
551.17	511.0000
551.52	499.0000
551.86	513.0000
552.20	511.0000
552.55	509.0000
552.89	509.0000
553.23	507.0000
553.57	502.0000
553.92	511.0000
554.26	512.0000
554.60	506.0000
554.94	523.0000
555.29	521.0000
555.63	521.0000
555.97	519.0000
556.31	515.0000
556.66	519.0000
557.00	514.0000
557.34	516.0000
557.68	515.0000
558.02	520.0000
558.37	505.0000
558.71	513.0000
559.05	525.0000
559.39	517.0000
559.73	533.0000
560.08	531.0000
560.42	519.0000
560.76	521.0000
561.10	524.0000
561.44	519.0000
561.78	531.0000
562.13	532.0000
562.47	526.0000
562.81	524.0000
563.15	527.0000
563.49	529.0000
563.83	519.0000
564.17	529.0000
564.52	531.0000
564.86	539.0000
565.20	533.0000
565.54	523.0000
565.88	538.0000
566.22	544.0000
566.56	540.0000
566.90	551.0000
567.24	561.0000
567.59	549.0000
567.93	569.0000
568.27	575.0000
568.61	588.0000
568.95	593.0000
569.29	605.0000
569.63	617.0000
569.97	611.0000
570.31	612.0000
570.65	622.0000
570.99	636.0000
571.33	622.0000
571.67	617.0000
572.01	623.0000
572.35	643.0000
572.69	645.0000
573.03	668.0000
573.37	664.0000
573.71	667.0000
574.05	671.0000
574.39	640.0000
574.73	654.0000
575.07	657.0000
575.41	645.0000
575.75	642.0000
576.09	686.0000
576.43	696.0000
576.77	715.0000
577.11	723.0000
577.45	703.0000
577.79	669.0000
578.13	671.0000
578.47	655.0000
578.81	669.0000
579.15	661.0000
579.49	660.0000
579.83	684.0000
580.17	736.0000
580.51	768.0000
580.85	785.0000
581.19	745.0000
581.53	708.0000
581.87	668.0000
582.20	651.0000
582.54	629.0000
582.88	622.0000
583.22	641.0000
583.56	648.0000
583.90	672.0000
584.24	689.0000
584.58	673.0000
584.92	674.0000
585.25	650.0000
585.59	633.0000
585.93	629.0000
586.27	658.0000
586.61	658.0000
586.95	646.0000
587.29	645.0000
587.62	625.0000
587.96	610.0000
588.30	587.0000
588.64	590.0000
588.98	582.0000
589.31	580.0000
589.65	569.0000
589.99	560.0000
590.33	568.0000
590.67	570.0000
591.01	579.0000
591.34	587.0000
591.68	623.0000
592.02	653.0000
592.36	630.0000
592.69	641.0000
593.03	626.0000
593.37	605.0000
593.71	615.0000
594.04	608.0000
594.38	608.0000
594.72	594.0000
595.06	586.0000
595.39	585.0000
595.73	574.0000
596.07	579.0000
596.41	574.0000
596.74	579.0000
597.08	578.0000
597.42	594.0000
597.76	608.0000
598.09	616.0000
598.43	605.0000
598.77	604.0000
599.10	630.0000
599.44	615.0000
599.78	619.0000
600.11	610.0000
600.45	603.0000
600.79	593.0000
601.12	590.0000
601.46	592.0000
601.80	605.0000
602.13	604.0000
602.47	609.0000
602.81	609.0000
603.14	598.0000
603.48	567.0000
603.82	587.0000
604.15	575.0000
604.49	575.0000
604.82	581.0000
605.16	587.0000
605.50	577.0000
605.83	577.0000
606.17	584.0000
606.50	571.0000
606.84	574.0000
607.18	577.0000
607.51	576.0000
607.85	568.0000
608.18	569.0000
608.52	572.0000
608.86	568.0000
609.19	573.0000
609.53	567.0000
609.86	573.0000
610.20	565.0000
610.53	562.0000
610.87	555.0000
611.20	561.0000
611.54	554.0000
611.87	548.0000
612.21	548.0000
612.54	539.0000
612.88	550.0000
613.21	549.0000
613.55	553.0000
613.88	555.0000
614.22	557.0000
614.55	553.0000
614.89	557.0000
615.22	535.0000
615.56	538.0000
615.89	533.0000
616.23	542.0000
616.56	522.0000
616.90	531.0000
617.23	525.0000
617.57	538.0000
617.90	523.0000
618.24	521.0000
618.57	513.0000
618.90	521.0000
619.24	516.0000
619.57	501.0000
619.91	502.0000
620.24	489.0000
620.58	503.0000
620.91	516.0000
621.24	496.0000
621.58	509.0000
621.91	510.0000
622.25	502.0000
622.58	509.0000
622.91	515.0000
623.25	501.0000
623.58	513.0000
623.91	497.0000
624.25	499.0000
624.58	492.0000
624.92	484.0000
625.25	489.0000
625.58	477.0000
625.92	468.0000
626.25	483.0000
626.58	479.0000
626.92	472.0000
627.25	467.0000
627.58	478.0000
627.91	482.0000
628.25	489.0000
628.58	483.0000
628.91	488.0000
629.25	485.0000
629.58	470.0000
629.91	478.0000
630.25	468.0000
630.58	468.0000
630.91	472.0000
631.24	459.0000
631.58	453.0000
631.91	459.0000
632.24	458.0000
632.57	455.0000
632.91	447.0000
633.24	437.0000
633.57	449.0000
633.90	450.0000
634.24	453.0000
634.57	447.0000
634.90	440.0000
635.23	441.0000
635.56	452.0000
635.90	454.0000
636.23	447.0000
636.56	444.0000
636.89	454.0000
637.22	439.0000
637.56	441.0000
637.89	446.0000
638.22	433.0000
638.55	439.0000
638.88	428.0000
639.21	443.0000
639.55	431.0000
639.88	430.0000
640.21	435.0000
640.54	428.0000
640.87	425.0000
641.20	427.0000
641.53	424.0000
641.87	427.0000
642.20	431.0000
642.53	425.0000
642.86	424.0000
643.19	418.0000
643.52	419.0000
643.85	418.0000
644.18	415.0000
644.51	415.0000
644.84	426.0000
645.18	425.0000
645.51	407.0000
645.84	416.0000
646.17	419.0000
646.50	408.0000
646.83	419.0000
647.16	420.0000
647.49	424.0000
647.82	429.0000
648.15	427.0000
648.48	423.0000
648.81	430.0000
649.14	421.0000
649.47	417.0000
649.80	419.0000
650.13	414.0000
650.46	429.0000
650.79	431.0000
651.12	426.0000
651.45	414.0000
651.78	425.0000
652.11	410.0000
652.44	405.0000
652.77	408.0000
653.10	412.0000
653.43	417.0000
653.76	411.0000
654.09	436.0000
654.42	617.0000
654.75	956.0000
655.08	1173.0000
655.41	1262.0000
655.74	1059.0000
656.07	874.0000
656.39	743.0000
656.72	642.0000
657.05	553.0000
657.38	488.0000
657.71	436.0000
658.04	421.0000
658.37	408.0000
658.70	409.0000
659.03	401.0000
659.36	406.0000
659.68	406.0000
660.01	406.0000
660.34	400.0000
660.67	398.0000
661.00	404.0000
661.33	404.0000
661.66	395.0000
661.98	392.0000
662.31	391.0000
662.64	401.0000
662.97	398.0000
663.30	390.0000
663.63	394.0000
663.95	401.0000
664.28	384.0000
664.61	385.0000
664.94	393.0000
665.27	391.0000
665.59	383.0000
665.92	396.0000
666.25	399.0000
666.58	387.0000
666.91	394.0000
667.23	384.0000
667.56	386.0000
667.89	391.0000
668.22	383.0000
668.54	385.0000
668.87	386.0000
669.20	392.0000
669.53	380.0000
669.85	375.0000
670.18	383.0000
670.51	379.0000
670.83	380.0000
671.16	398.0000
671.49	401.0000
671.82	390.0000
672.14	400.0000
672.47	387.0000
672.80	383.0000
673.12	382.0000
673.45	384.0000
673.78	372.0000
674.10	373.0000
674.43	374.0000
674.76	382.0000
675.08	380.0000
675.41	375.0000
675.74	381.0000
676.06	375.0000
676.39	373.0000
676.72	375.0000
677.04	367.0000
677.37	373.0000
677.69	381.0000
678.02	375.0000
678.35	371.0000
678.67	377.0000
679.00	382.0000
679.32	377.0000
679.65	370.0000
679.98	386.0000
680.30	375.0000
680.63	371.0000
680.95	368.0000
681.28	367.0000
681.60	351.0000
681.93	362.0000
682.26	355.0000
682.58	359.0000
682.91	350.0000
683.23	361.0000
683.56	363.0000
683.88	374.0000
684.21	371.0000
684.53	367.0000
684.86	377.0000
685.18	375.0000
685.51	367.0000
685.83	370.0000
686.16	360.0000
686.48	363.0000
686.81	359.0000
687.13	364.0000
687.46	360.0000
687.78	363.0000
688.11	353.0000
688.43	342.0000
688.76	347.0000
689.08	353.0000
689.41	353.0000
689.73	352.0000
690.05	336.0000
690.38	353.0000
690.70	353.0000
691.03	346.0000
691.35	356.0000
691.68	351.0000
692.00	340.0000
692.32	347.0000
692.65	341.0000
692.97	335.0000
693.29	339.0000
693.62	338.0000
693.94	332.0000
694.27	335.0000
694.59	330.0000
694.91	330.0000
695.24	339.0000
695.56	325.0000
695.88	330.0000
696.21	326.0000
696.53	347.0000
696.85	335.0000
697.18	333.0000
697.50	326.0000
697.82	337.0000
698.15	330.0000
698.47	320.0000
698.79	321.0000
699.12	324.0000
699.44	314.0000
699.76	322.0000
700.09	321.0000
700.41	314.0000
700.73	311.0000
701.05	323.0000
701.38	322.0000
701.70	315.0000
702.02	322.0000
702.34	319.0000
702.67	317.0000
702.99	321.0000
703.31	319.0000
703.63	311.0000
703.96	307.0000
704.28	301.0000
704.60	304.0000
704.92	312.0000
705.25	312.0000
705.57	303.0000
705.89	308.0000
706.21	318.0000
706.53	311.0000
706.86	323.0000
707.18	314.0000
707.50	321.0000
707.82	319.0000
708.14	318.0000
708.46	320.0000
708.79	315.0000
709.11	310.0000
709.43	300.0000
709.75	308.0000
710.07	315.0000
710.39	301.0000
710.71	313.0000
711.04	309.0000
711.36	303.0000
711.68	304.0000
712.00	301.0000
712.32	297.0000
712.64	296.0000
712.96	297.0000
713.28	294.0000
713.60	304.0000
713.92	302.0000
714.24	301.0000
714.57	298.0000
714.89	296.0000
715.21	291.0000
715.53	294.0000
715.85	286.0000
716.17	294.0000
716.49	295.0000
716.81	290.0000
717.13	290.0000
717.45	286.0000
717.77	290.0000
718.09	296.0000
718.41	296.0000
718.73	282.0000
719.05	285.0000
719.37	277.0000
719.69	285.0000
720.01	286.0000
720.33	288.0000
720.65	281.0000
720.97	290.0000
721.29	280.0000
721.61	288.0000
721.93	277.0000
722.25	278.0000
722.57	279.0000
722.89	281.0000
723.21	278.0000
723.52	286.0000
723.84	277.0000
724.16	277.0000
724.48	275.0000
724.80	275.0000
725.12	280.0000
725.44	279.0000
725.76	274.0000
726.08	276.0000
726.40	274.0000
726.72	272.0000
727.03	265.0000
727.35	274.0000
727.67	270.0000
727.99	275.0000
728.31	271.0000
728.63	273.0000
728.95	267.0000
729.26	271.0000
729.58	275.0000
729.90	265.0000
730.22	267.0000
730.54	266.0000
730.86	274.0000
731.17	274.0000
731.49	267.0000
731.81	275.0000
732.13	273.0000
732.45	265.0000
732.76	259.0000
733.08	265.0000
733.40	271.0000
733.72	272.0000
734.03	271.0000
734.35	270.0000
734.67	267.0000
734.99	262.0000
735.30	269.0000
735.62	264.0000
735.94	258.0000
736.26	257.0000
736.57	258.0000
736.89	252.0000
737.21	251.0000
737.53	253.0000
737.84	248.0000
738.16	244.0000
738.48	259.0000
738.79	253.0000
739.11	249.0000
739.43	251.0000
739.74	241.0000
740.06	244.0000
740.38	245.0000
740.69	239.0000
741.01	245.0000
741.33	241.0000
741.64	248.0000
741.96	243.0000
742.28	231.0000
742.59	239.0000
742.91	234.0000
743.23	231.0000
743.54	233.0000
743.86	237.0000
744.17	230.0000
744.49	230.0000
744.81	234.0000
745.12	227.0000
745.44	230.0000
745.75	229.0000
746.07	229.0000
746.38	223.0000
746.70	225.0000
747.02	229.0000
747.33	223.0000
747.65	225.0000
747.96	215.0000
748.28	226.0000
748.59	224.0000
748.91	228.0000
749.22	227.0000
749.54	223.0000
749.85	225.0000
750.17	223.0000
750.48	219.0000
750.80	219.0000
751.11	218.0000
751.43	216.0000
751.74	221.0000
752.06	223.0000
752.37	212.0000
752.69	220.0000
753.00	219.0000
753.32	226.0000
753.63	225.0000
753.95	220.0000
754.26	224.0000
754.58	218.0000
754.89	223.0000
755.20	213.0000
755.52	218.0000
755.83	229.0000
756.15	226.0000
756.46	234.0000
756.78	223.0000
757.09	221.0000
757.40	225.0000
757.72	225.0000
758.03	225.0000
758.34	216.0000
758.66	222.0000
758.97	225.0000
759.29	222.0000
759.60	218.0000
759.91	231.0000
760.23	229.0000
760.54	223.0000
760.85	213.0000
761.17	218.0000
761.48	216.0000
761.79	209.0000
762.11	212.0000
762.42	205.0000
762.73	203.0000
763.05	205.0000
763.36	211.0000
763.67	221.0000
763.98	222.0000
764.30	214.0000
764.61	212.0000
764.92	215.0000
765.23	213.0000
765.55	204.0000
765.86	197.0000
766.17	204.0000
766.48	196.0000
766.80	199.0000
767.11	202.0000
767.42	204.0000
767.73	196.0000
768.05	212.0000
768.36	206.0000
768.67	200.0000
768.98	200.0000
769.29	199.0000
769.61	194.0000
769.92	198.0000
770.23	190.0000
770.54	189.0000
770.85	200.0000
771.17	192.0000
771.48	199.0000
771.79	196.0000
772.10	191.0000
772.41	195.0000
772.72	194.0000
773.03	190.0000
773.35	189.0000
773.66	184.0000
773.97	188.0000
774.28	180.0000
774.59	177.0000
774.90	177.0000
775.21	180.0000
775.52	185.0000
775.83	192.0000
776.15	179.0000
776.46	176.0000
776.77	174.0000
777.08	179.0000
777.39	176.0000
777.70	172.0000
778.01	183.0000
778.32	175.0000
778.63	178.0000
778.94	180.0000
779.25	186.0000
779.56	177.0000
779.87	176.0000
780.18	173.0000
780.49	176.0000
780.80	175.0000
781.11	177.0000
781.42	181.0000
781.73	173.0000
782.04	174.0000
782.35	169.0000
782.66	175.0000
782.97	168.0000
783.28	169.0000
783.59	182.0000
783.90	170.0000
784.21	168.0000
784.52	164.0000
784.83	161.0000
785.14	163.0000
785.45	164.0000
785.76	161.0000
786.06	160.0000
786.37	163.0000
786.68	164.0000
786.99	159.0000
787.30	159.0000
787.61	166.0000
787.92	162.0000
788.23	161.0000
788.54	163.0000
788.84	159.0000
789.15	165.0000
789.46	164.0000
789.77	162.0000
790.08	163.0000
790.39	155.0000
790.70	154.0000
791.00	157.0000
791.31	153.0000
791.62	151.0000
791.93	154.0000
792.24	145.0000
792.54	148.0000
792.85	150.0000
793.16	158.0000
793.47	152.0000
793.78	158.0000
794.08	155.0000
794.39	153.0000
794.70	155.0000
795.01	149.0000
795.31	155.0000
795.62	147.0000
795.93	143.0000
796.24	147.0000
796.54	143.0000
796.85	155.0000
797.16	149.0000
797.47	151.0000
797.77	141.0000
798.08	142.0000
798.39	139.0000
798.69	146.0000
799.00	150.0000
799.31	140.0000
799.62	140.0000
799.92	137.0000
800.23	136.0000
800.54	142.0000
800.84	135.0000
801.15	137.0000
801.46	142.0000
801.76	141.0000
802.07	138.0000
802.37	134.0000
802.68	132.0000
802.99	133.0000
803.29	132.0000
803.60	129.0000
803.91	135.0000
804.21	131.0000
804.52	133.0000
804.82	133.0000
805.13	132.0000
805.44	133.0000
805.74	132.0000
806.05	136.0000
806.35	135.0000
806.66	136.0000
806.96	130.0000
807.27	129.0000
807.57	124.0000
807.88	129.0000
808.19	127.0000
808.49	126.0000
808.80	123.0000
809.10	127.0000
809.41	128.0000
809.71	119.0000
810.02	130.0000
810.32	124.0000
810.63	123.0000
810.93	129.0000
811.24	122.0000
811.54	118.0000
811.85	121.0000
812.15	122.0000
812.45	122.0000
812.76	124.0000
813.06	122.0000
813.37	123.0000
813.67	123.0000
813.98	124.0000
814.28	127.0000
814.58	126.0000
814.89	117.0000
815.19	117.0000
815.50	117.0000
815.80	111.0000
816.11	114.0000
816.41	115.0000
816.71	119.0000
817.02	114.0000
817.32	118.0000
817.62	111.0000
817.93	111.0000
818.23	119.0000
818.53	115.0000
818.84	111.0000
819.14	111.0000
819.44	117.0000
819.75	113.0000
820.05	108.0000
820.35	116.0000
820.66	118.0000
820.96	119.0000
821.26	119.0000
821.57	113.0000
821.87	110.0000
822.17	110.0000
822.48	109.0000
822.78	111.0000
823.08	106.0000
823.38	109.0000
823.69	116.0000
823.99	106.0000
824.29	109.0000
824.59	107.0000
824.90	114.0000
825.20	110.0000
825.50	109.0000
825.80	112.0000
826.10	108.0000
826.41	108.0000
826.71	110.0000
827.01	113.0000
827.31	105.0000
827.61	108.0000
827.92	104.0000
828.22	102.0000
828.52	106.0000
828.82	111.0000
829.12	114.0000
829.42	107.0000
829.73	107.0000
830.03	102.0000
830.33	104.0000
830.63	104.0000
830.93	101.0000
831.23	101.0000
831.53	103.0000
831.83	101.0000
832.14	101.0000
832.44	102.0000
832.74	104.0000
833.04	98.0000
833.34	100.0000
833.64	100.0000
833.94	102.0000
834.24	104.0000
834.54	101.0000
834.84	100.0000
835.14	105.0000
835.44	101.0000
835.74	99.0000
836.04	95.0000
836.34	102.0000
836.64	95.0000
836.95	97.0000
837.25	94.0000
837.55	100.0000
837.85	101.0000
838.15	99.0000
838.45	96.0000
838.74	88.0000
839.04	96.0000
839.34	94.0000
839.64	96.0000
839.94	91.0000
840.24	95.0000
840.54	101.0000
840.84	91.0000
841.14	95.0000
841.44	92.0000
841.74	93.0000
842.04	90.0000
842.34	94.0000
842.64	94.0000
842.94	98.0000
843.24	94.0000
843.53	92.0000
843.83	96.0000
844.13	92.0000
844.43	93.0000
844.73	98.0000
845.03	96.0000
845.33	95.0000
845.63	96.0000
845.92	93.0000
846.22	92.0000
846.52	97.0000
846.82	87.0000
847.12	89.0000
847.42	93.0000
847.71	91.0000
848.01	85.0000
848.31	94.0000
848.61	97.0000
848.91	93.0000
849.20	90.0000
849.50	86.0000
849.80	88.0000
850.10	87.0000
850.39	88.0000
850.69	89.0000
850.99	91.0000
851.29	93.0000
851.59	88.0000
851.88	94.0000
852.18	92.0000
852.48	89.0000
852.77	87.0000
853.07	87.0000
853.37	87.0000
853.67	92.0000
853.96	89.0000
854.26	87.0000
854.56	84.0000
854.85	83.0000
855.15	89.0000
855.45	85.0000
855.74	89.0000
856.04	87.0000
856.34	87.0000
856.63	83.0000
856.93	86.0000
857.23	90.0000
857.52	89.0000
857.82	89.0000
858.11	89.0000
858.41	85.0000
858.71	89.0000
859.00	85.0000
859.30	85.0000
859.59	84.0000
859.89	83.0000
860.19	86.0000
860.48	81.0000
860.78	80.0000
861.07	79.0000
861.37	83.0000
861.66	82.0000
861.96	85.0000
862.26	84.0000
862.55	76.0000
862.85	83.0000
863.14	84.0000
863.44	78.0000
863.73	85.0000
864.03	78.0000
864.32	78.0000
864.62	80.0000
864.91	79.0000
865.21	77.0000
865.50	78.0000
865.80	80.0000
866.09	83.0000
866.39	78.0000
866.68	77.0000
866.97	79.0000
867.27	80.0000
867.56	80.0000
867.86	78.0000
868.15	82.0000
868.45	81.0000
868.74	78.0000
869.03	76.0000
869.33	77.0000
869.62	77.0000
869.92	77.0000
870.21	77.0000
870.50	79.0000
870.80	80.0000
871.09	76.0000
871.39	80.0000
871.68	79.0000
871.97	77.0000
872.27	75.0000
872.56	72.0000
872.85	73.0000
873.15	77.0000
873.44	75.0000
873.73	75.0000
874.03	77.0000
874.32	73.0000
874.61	82.0000
874.90	80.0000
875.20	72.0000
875.49	70.0000
875.78	71.0000
>>>>>End Spectral Data<<<<<
