Wavelength,Intensity
350.25,102.0
350.61,101.0
350.97,102.0
351.34,104.0
351.7,106.0
352.07,102.0
352.43,103.0
352.79,100.0
353.16,106.0
353.52,106.0
353.88,100.0
354.25,101.0
354.61,104.0
354.97,108.0
355.34,111.0
355.7,109.0
356.06,105.0
356.43,111.0
356.79,110.0
357.15,105.0
357.52,106.0
357.88,109.0
358.24,117.0
358.6,107.0
358.97,111.0
359.33,117.0
359.69,114.0
360.06,113.0
360.42,113.0
360.78,119.0
361.14,120.0
361.51,110.0
361.87,121.0
362.23,119.0
362.6,120.0
362.96,124.0
363.32,127.0
363.68,118.0
364.05,117.0
364.41,120.0
364.77,125.0
365.13,120.0
365.5,126.0
365.86,130.0
366.22,134.0
366.58,132.0
366.95,133.0
367.31,131.0
367.67,127.0
368.03,128.0
368.39,137.0
368.76,138.0
369.12,135.0
369.48,136.0
369.84,134.0
370.2,137.0
370.57,136.0
370.93,136.0
371.29,134.0
371.65,135.0
372.01,141.0
372.38,140.0
372.74,138.0
373.1,140.0
373.46,147.0
373.82,140.0
374.18,140.0
374.55,143.0
374.91,140.0
375.27,151.0
375.63,143.0
375.99,145.0
376.35,145.0
376.71,143.0
377.08,145.0
377.44,152.0
377.8,163.0
378.16,162.0
378.52,156.0
378.88,160.0
379.24,157.0
379.6,164.0
379.97,168.0
380.33,166.0
380.69,160.0
381.05,159.0
381.41,178.0
381.77,162.0
382.13,168.0
382.49,169.0
382.85,174.0
383.21,176.0
383.57,158.0
383.94,175.0
384.3,179.0
384.66,173.0
385.02,166.0
385.38,179.0
385.74,177.0
386.1,181.0
386.46,184.0
386.82,179.0
387.18,184.0
387.54,184.0
387.9,190.0
388.26,192.0
388.62,188.0
388.98,182.0
389.34,191.0
389.7,189.0
390.06,176.0
390.42,179.0
390.78,197.0
391.14,203.0
391.5,194.0
391.86,207.0
392.22,208.0
392.58,207.0
392.94,188.0
393.3,187.0
393.66,198.0
394.02,202.0
394.38,177.0
394.74,186.0
395.1,192.0
395.46,191.0
395.82,199.0
396.18,200.0
396.54,209.0
396.9,226.0
397.26,208.0
397.62,214.0
397.98,228.0
398.34,200.0
398.7,208.0
399.05,191.0
399.41,195.0
399.77,194.0
400.13,207.0
400.49,209.0
400.85,208.0
401.21,191.0
401.57,210.0
401.93,205.0
402.29,202.0
402.65,211.0
403.0,215.0
403.36,215.0
403.72,208.0
404.08,229.0
404.44,211.0
404.8,214.0
405.16,219.0
405.52,219.0
405.87,220.0
406.23,223.0
406.59,205.0
406.95,214.0
407.31,212.0
407.67,214.0
408.03,218.0
408.38,221.0
408.74,238.0
409.1,235.0
409.46,211.0
409.82,224.0
410.17,222.0
410.53,207.0
410.89,220.0
411.25,206.0
411.61,208.0
411.97,228.0
412.32,236.0
412.68,219.0
413.04,216.0
413.4,195.0
413.75,204.0
414.11,210.0
414.47,202.0
414.83,234.0
415.19,222.0
415.54,200.0
415.9,227.0
416.26,219.0
416.62,225.0
416.97,200.0
417.33,237.0
417.69,233.0
418.05,224.0
418.4,212.0
418.76,207.0
419.12,236.0
419.48,235.0
419.83,255.0
420.19,231.0
420.55,235.0
420.9,264.0
421.26,249.0
421.62,229.0
421.98,251.0
422.33,260.0
422.69,270.0
423.05,256.0
423.4,227.0
423.76,217.0
424.12,242.0
424.47,238.0
424.83,224.0
425.19,226.0
425.54,224.0
425.9,245.0
426.26,262.0
426.61,260.0
426.97,211.0
427.33,249.0
427.68,242.0
428.04,270.0
428.4,272.0
428.75,287.0
429.11,252.0
429.47,296.0
429.82,295.0
430.18,278.0
430.53,262.0
430.89,254.0
431.25,254.0
431.6,256.0
431.96,245.0
432.31,249.0
432.67,274.0
433.03,282.0
433.38,264.0
433.74,266.0
434.09,272.0
434.45,260.0
434.81,241.0
435.16,264.0
435.52,243.0
435.87,244.0
436.23,242.0
436.58,245.0
436.94,257.0
437.3,276.0
437.65,276.0
438.01,268.0
438.36,259.0
438.72,256.0
439.07,242.0
439.43,262.0
439.78,275.0
440.14,300.0
440.49,267.0
440.85,279.0
441.2,291.0
441.56,274.0
441.91,293.0
442.27,272.0
442.62,269.0
442.98,287.0
443.33,273.0
443.69,280.0
444.04,273.0
444.4,256.0
444.75,286.0
445.11,295.0
445.46,305.0
445.82,290.0
446.17,271.0
446.53,297.0
446.88,320.0
447.23,257.0
447.59,265.0
447.94,271.0
448.3,280.0
448.65,275.0
449.01,301.0
449.36,292.0
449.72,301.0
450.07,316.0
450.42,296.0
450.78,289.0
451.13,303.0
451.49,291.0
451.84,285.0
452.19,263.0
452.55,281.0
452.9,278.0
453.26,309.0
453.61,302.0
453.96,265.0
454.32,299.0
454.67,290.0
455.02,271.0
455.38,277.0
455.73,280.0
456.09,308.0
456.44,304.0
456.79,308.0
457.15,292.0
457.5,289.0
457.85,289.0
458.21,297.0
458.56,285.0
458.91,287.0
459.27,270.0
459.62,293.0
459.97,294.0
460.32,300.0
460.68,294.0
461.03,272.0
461.38,282.0
461.74,309.0
462.09,302.0
462.44,285.0
462.8,299.0
463.15,298.0
463.5,300.0
463.85,303.0
464.21,320.0
464.56,324.0
464.91,293.0
465.26,294.0
465.62,305.0
465.97,328.0
466.32,313.0
466.67,318.0
467.03,290.0
467.38,298.0
467.73,312.0
468.08,325.0
468.44,319.0
468.79,302.0
469.14,297.0
469.49,308.0
469.85,315.0
470.2,330.0
470.55,338.0
470.9,337.0
471.25,305.0
471.61,330.0
471.96,331.0
472.31,344.0
472.66,341.0
473.01,353.0
473.36,360.0
473.72,358.0
474.07,362.0
474.42,366.0
474.77,374.0
475.12,367.0
475.47,382.0
475.83,386.0
476.18,380.0
476.53,376.0
476.88,406.0
477.23,397.0
477.58,392.0
477.93,391.0
478.28,406.0
478.64,403.0
478.99,407.0
479.34,413.0
479.69,437.0
480.04,439.0
480.39,445.0
480.74,427.0
481.09,450.0
481.44,460.0
481.79,440.0
482.15,447.0
482.5,456.0
482.85,452.0
483.2,497.0
483.55,484.0
483.9,494.0
484.25,579.0
484.6,628.0
484.95,686.0
485.3,675.0
485.65,604.0
486.0,581.0
486.35,538.0
486.7,502.0
487.05,520.0
487.4,499.0
487.75,502.0
488.1,501.0
488.45,492.0
488.8,499.0
489.15,504.0
489.5,508.0
489.85,514.0
490.2,505.0
490.55,516.0
490.9,507.0
491.25,526.0
491.6,512.0
491.95,497.0
492.3,507.0
492.65,506.0
493.0,517.0
493.35,513.0
493.7,513.0
494.05,527.0
494.4,525.0
494.75,530.0
495.1,532.0
495.45,536.0
495.8,544.0
496.15,539.0
496.5,519.0
496.84,515.0
497.19,532.0
497.54,517.0
497.89,529.0
498.24,531.0
498.59,534.0
498.94,527.0
499.29,525.0
499.64,534.0
499.99,531.0
500.33,552.0
500.68,542.0
501.03,552.0
501.38,554.0
501.73,559.0
502.08,544.0
502.43,550.0
502.77,556.0
503.12,548.0
503.47,541.0
503.82,551.0
504.17,567.0
504.52,556.0
504.86,564.0
505.21,571.0
505.56,559.0
505.91,539.0
506.26,537.0
506.61,566.0
506.95,549.0
507.3,555.0
507.65,566.0
508.0,554.0
508.35,553.0
508.69,546.0
509.04,558.0
509.39,565.0
509.74,563.0
510.08,561.0
510.43,571.0
510.78,560.0
511.13,568.0
511.47,579.0
511.82,577.0
512.17,561.0
512.52,574.0
512.86,559.0
513.21,573.0
513.56,567.0
513.91,575.0
514.25,576.0
514.6,573.0
514.95,578.0
515.3,569.0
515.64,591.0
515.99,582.0
516.34,579.0
516.68,579.0
517.03,581.0
517.38,570.0
517.72,586.0
518.07,569.0
518.42,588.0
518.76,603.0
519.11,586.0
519.46,597.0
519.8,592.0
520.15,594.0
520.5,589.0
520.84,593.0
521.19,602.0
521.54,597.0
521.88,592.0
522.23,601.0
522.58,600.0
522.92,594.0
523.27,611.0
523.61,614.0
523.96,600.0
524.31,609.0
524.65,602.0
525.0,613.0
525.34,592.0
525.69,598.0
526.04,603.0
526.38,599.0
526.73,600.0
527.07,604.0
527.42,607.0
527.76,627.0
528.11,629.0
528.46,614.0
528.8,622.0
529.15,611.0
529.49,603.0
529.84,622.0
530.18,614.0
530.53,615.0
530.87,616.0
531.22,611.0
531.56,612.0
531.91,615.0
532.25,634.0
532.6,632.0
532.94,615.0
533.29,620.0
533.63,633.0
533.98,627.0
534.32,635.0
534.67,635.0
535.01,639.0
535.36,630.0
535.7,619.0
536.05,617.0
536.39,644.0
536.74,633.0
537.08,631.0
537.43,630.0
537.77,632.0
538.12,643.0
538.46,642.0
538.8,638.0
539.15,633.0
539.49,647.0
539.84,653.0
540.18,652.0
540.53,651.0
540.87,643.0
541.21,652.0
541.56,648.0
541.9,653.0
542.25,643.0
542.59,642.0
542.93,647.0
543.28,658.0
543.62,652.0
543.97,661.0
544.31,669.0
544.65,650.0
545.0,643.0
545.34,659.0
545.68,650.0
546.03,655.0
546.37,671.0
546.71,670.0
547.06,674.0
547.4,682.0
547.74,680.0
548.09,667.0
548.43,652.0
548.77,656.0
549.12,656.0
549.46,654.0
549.8,651.0
550.15,642.0
550.49,660.0
550.83,669.0
551.17,690.0
551.52,675.0
551.86,685.0
552.2,670.0
552.55,681.0
552.89,667.0
553.23,670.0
553.57,682.0
553.92,672.0
554.26,686.0
554.6,684.0
554.94,691.0
555.29,688.0
555.63,697.0
555.97,686.0
556.31,676.0
556.66,673.0
557.0,679.0
557.34,674.0
557.68,674.0
558.02,673.0
558.37,680.0
558.71,689.0
559.05,690.0
559.39,693.0
559.73,710.0
560.08,704.0
560.42,706.0
560.76,709.0
561.1,708.0
561.44,682.0
561.78,693.0
562.13,707.0
562.47,702.0
562.81,710.0
563.15,691.0
563.49,702.0
563.83,708.0
564.17,721.0
564.52,699.0
564.86,699.0
565.2,708.0
565.54,707.0
565.88,715.0
566.22,721.0
566.56,723.0
566.9,733.0
567.24,748.0
567.59,740.0
567.93,752.0
568.27,787.0
568.61,804.0
568.95,812.0
569.29,793.0
569.63,821.0
569.97,823.0
570.31,835.0
570.65,853.0
570.99,853.0
571.33,853.0
571.67,830.0
572.01,834.0
572.35,867.0
572.69,883.0
573.03,893.0
573.37,909.0
573.71,926.0
574.05,904.0
574.39,890.0
574.73,906.0
575.07,883.0
575.41,885.0
575.75,902.0
576.09,924.0
576.43,947.0
576.77,982.0
577.11,992.0
577.45,979.0
577.79,934.0
578.13,928.0
578.47,919.0
578.81,923.0
579.15,915.0
579.49,917.0
579.83,951.0
580.17,1026.0
580.51,1052.0
580.85,1066.0
581.19,1041.0
581.53,991.0
581.87,958.0
582.2,897.0
582.54,872.0
582.88,829.0
583.22,869.0
583.56,888.0
583.9,910.0
584.24,950.0
584.58,943.0
584.92,921.0
585.25,889.0
585.59,891.0
585.93,908.0
586.27,910.0
586.61,899.0
586.95,892.0
587.29,882.0
587.62,878.0
587.96,858.0
588.3,826.0
588.64,813.0
588.98,819.0
589.31,803.0
589.65,793.0
589.99,784.0
590.33,789.0
590.67,775.0
591.01,797.0
591.34,827.0
591.68,846.0
592.02,877.0
592.36,884.0
592.69,870.0
593.03,838.0
593.37,840.0
593.71,833.0
594.04,834.0
594.38,824.0
594.72,821.0
595.06,810.0
595.39,800.0
595.73,793.0
596.07,815.0
596.41,812.0
596.74,799.0
597.08,803.0
597.42,822.0
597.76,824.0
598.09,859.0
598.43,859.0
598.77,843.0
599.1,867.0
599.44,847.0
599.78,850.0
600.11,833.0
600.45,853.0
600.79,817.0
601.12,822.0
601.46,833.0
601.8,842.0
602.13,831.0
602.47,845.0
602.81,843.0
603.14,827.0
603.48,821.0
603.82,816.0
604.15,814.0
604.49,833.0
604.82,820.0
605.16,825.0
605.5,806.0
605.83,817.0
606.17,813.0
606.5,817.0
606.84,837.0
607.18,834.0
607.51,799.0
607.85,801.0
608.18,795.0
608.52,792.0
608.86,815.0
609.19,811.0
609.53,788.0
609.86,798.0
610.2,791.0
610.53,799.0
610.87,759.0
611.2,785.0
611.54,779.0
611.87,784.0
612.21,761.0
612.54,766.0
612.88,779.0
613.21,795.0
613.55,785.0
613.88,784.0
614.22,784.0
614.55,783.0
614.89,770.0
615.22,761.0
615.56,758.0
615.89,758.0
616.23,749.0
616.56,733.0
616.9,738.0
617.23,718.0
617.57,745.0
617.9,737.0
618.24,736.0
618.57,723.0
618.9,721.0
619.24,727.0
619.57,713.0
619.91,713.0
620.24,702.0
620.58,708.0
620.91,701.0
621.24,718.0
621.58,721.0
621.91,720.0
622.25,722.0
622.58,720.0
622.91,733.0
623.25,707.0
623.58,699.0
623.91,702.0
624.25,703.0
624.58,694.0
624.92,688.0
625.25,686.0
625.58,680.0
625.92,691.0
626.25,685.0
626.58,683.0
626.92,679.0
627.25,674.0
627.58,672.0
627.91,678.0
628.25,694.0
628.58,684.0
628.91,676.0
629.25,697.0
629.58,670.0
629.91,666.0
630.25,665.0
630.58,650.0
630.91,665.0
631.24,641.0
631.58,646.0
631.91,646.0
632.24,633.0
632.57,647.0
632.91,631.0
633.24,628.0
633.57,630.0
633.9,638.0
634.24,637.0
634.57,644.0
634.9,647.0
635.23,629.0
635.56,626.0
635.9,641.0
636.23,640.0
636.56,632.0
636.89,635.0
637.22,640.0
637.56,624.0
637.89,615.0
638.22,619.0
638.55,639.0
638.88,605.0
639.21,615.0
639.55,626.0
639.88,609.0
640.21,609.0
640.54,606.0
640.87,603.0
641.2,605.0
641.53,607.0
641.87,609.0
642.2,609.0
642.53,608.0
642.86,603.0
643.19,613.0
643.52,608.0
643.85,606.0
644.18,596.0
644.51,602.0
644.84,594.0
645.18,593.0
645.51,607.0
645.84,608.0
646.17,594.0
646.5,594.0
646.83,594.0
647.16,597.0
647.49,613.0
647.82,620.0
648.15,609.0
648.48,609.0
648.81,619.0
649.14,607.0
649.47,614.0
649.8,610.0
650.13,595.0
650.46,601.0
650.79,596.0
651.12,599.0
651.45,596.0
651.78,584.0
652.11,602.0
652.44,593.0
652.77,601.0
653.1,589.0
653.43,605.0
653.76,587.0
654.09,614.0
654.42,862.0
654.75,1355.0
655.08,1692.0
655.41,1849.0
655.74,1568.0
656.07,1351.0
656.39,1158.0
656.72,981.0
657.05,817.0
657.38,694.0
657.71,636.0
658.04,606.0
658.37,604.0
658.7,587.0
659.03,586.0
659.36,570.0
659.68,566.0
660.01,580.0
660.34,577.0
660.67,572.0
661.0,579.0
661.33,560.0
661.66,558.0
661.98,569.0
662.31,559.0
662.64,564.0
662.97,566.0
663.3,561.0
663.63,567.0
663.95,571.0
664.28,572.0
664.61,570.0
664.94,575.0
665.27,571.0
665.59,560.0
665.92,561.0
666.25,565.0
666.58,552.0
666.91,564.0
667.23,547.0
667.56,540.0
667.89,557.0
668.22,551.0
668.54,564.0
668.87,558.0
669.2,562.0
669.53,551.0
669.85,554.0
670.18,550.0
670.51,551.0
670.83,559.0
671.16,570.0
671.49,569.0
671.82,575.0
672.14,571.0
672.47,561.0
672.8,564.0
673.12,553.0
673.45,555.0
673.78,541.0
674.1,554.0
674.43,555.0
674.76,542.0
675.08,539.0
675.41,531.0
675.74,542.0
676.06,538.0
676.39,535.0
676.72,532.0
677.04,533.0
677.37,548.0
677.69,534.0
678.02,541.0
678.35,528.0
678.67,531.0
679.0,544.0
679.32,544.0
679.65,534.0
679.98,527.0
680.3,535.0
680.63,527.0
680.95,522.0
681.28,530.0
681.6,526.0
681.93,515.0
682.26,510.0
682.58,523.0
682.91,521.0
683.23,520.0
683.56,514.0
683.88,513.0
684.21,527.0
684.53,529.0
684.86,536.0
685.18,543.0
685.51,538.0
685.83,523.0
686.16,525.0
686.48,523.0
686.81,533.0
687.13,520.0
687.46,517.0
687.78,518.0
688.11,498.0
688.43,495.0
688.76,499.0
689.08,502.0
689.41,491.0
689.73,499.0
690.05,500.0
690.38,494.0
690.7,502.0
691.03,488.0
691.35,492.0
691.68,483.0
692.0,487.0
692.32,506.0
692.65,481.0
692.97,487.0
693.29,483.0
693.62,477.0
693.94,475.0
694.27,478.0
694.59,475.0
694.91,475.0
695.24,476.0
695.56,467.0
695.88,471.0
696.21,470.0
696.53,462.0
696.85,484.0
697.18,482.0
697.5,468.0
697.82,477.0
698.15,460.0
698.47,463.0
698.79,466.0
699.12,468.0
699.44,452.0
699.76,451.0
700.09,451.0
700.41,453.0
700.73,441.0
701.05,451.0
701.38,448.0
701.7,456.0
702.02,464.0
702.34,445.0
702.67,457.0
702.99,453.0
703.31,446.0
703.63,451.0
703.96,447.0
704.28,427.0
704.6,420.0
704.92,433.0
705.25,429.0
705.57,452.0
705.89,443.0
706.21,443.0
706.53,446.0
706.86,461.0
707.18,453.0
707.5,457.0
707.82,446.0
708.14,443.0
708.46,456.0
708.79,441.0
709.11,443.0
709.43,444.0
709.75,439.0
710.07,439.0
710.39,448.0
710.71,437.0
711.04,437.0
711.36,431.0
711.68,429.0
712.0,431.0
712.32,430.0
712.64,420.0
712.96,421.0
713.28,437.0
713.6,426.0
713.92,418.0
714.24,442.0
714.57,420.0
714.89,419.0
715.21,424.0
715.53,414.0
715.85,418.0
716.17,407.0
716.49,407.0
716.81,407.0
717.13,398.0
717.45,422.0
717.77,417.0
718.09,408.0
718.41,407.0
718.73,409.0
719.05,407.0
719.37,398.0
719.69,406.0
720.01,413.0
720.33,415.0
720.65,403.0
720.97,409.0
721.29,401.0
721.61,398.0
721.93,394.0
722.25,394.0
722.57,391.0
722.89,400.0
723.21,407.0
723.52,390.0
723.84,392.0
724.16,388.0
724.48,394.0
724.8,401.0
725.12,396.0
725.44,406.0
725.76,386.0
726.08,402.0
726.4,395.0
726.72,390.0
727.03,389.0
727.35,387.0
727.67,391.0
727.99,392.0
728.31,386.0
728.63,383.0
728.95,391.0
729.26,384.0
729.58,391.0
729.9,391.0
730.22,376.0
730.54,384.0
730.86,388.0
731.17,383.0
731.49,385.0
731.81,392.0
732.13,384.0
732.45,375.0
732.76,377.0
733.08,380.0
733.4,389.0
733.72,383.0
734.03,375.0
734.35,378.0
734.67,379.0
734.99,365.0
735.3,374.0
735.62,371.0
735.94,378.0
736.26,375.0
736.57,368.0
736.89,371.0
737.21,361.0
737.53,359.0
737.84,345.0
738.16,353.0
738.48,353.0
738.79,370.0
739.11,356.0
739.43,343.0
739.74,354.0
740.06,364.0
740.38,342.0
740.69,335.0
741.01,336.0
741.33,333.0
741.64,333.0
741.96,339.0
742.28,329.0
742.59,323.0
742.91,328.0
743.23,322.0
743.54,326.0
743.86,325.0
744.17,316.0
744.49,325.0
744.81,321.0
745.12,319.0
745.44,317.0
745.75,317.0
746.07,314.0
746.38,321.0
746.7,313.0
747.02,320.0
747.33,302.0
747.65,310.0
747.96,313.0
748.28,312.0
748.59,311.0
748.91,307.0
749.22,319.0
749.54,310.0
749.85,320.0
750.17,319.0
750.48,312.0
750.8,309.0
751.11,300.0
751.43,313.0
751.74,302.0
752.06,294.0
752.37,302.0
752.69,309.0
753.0,304.0
753.32,310.0
753.63,317.0
753.95,303.0
754.26,305.0
754.58,300.0
754.89,301.0
755.2,309.0
755.52,312.0
755.83,314.0
756.15,312.0
756.46,310.0
756.78,315.0
757.09,318.0
757.4,321.0
757.72,314.0
758.03,304.0
758.34,307.0
758.66,315.0
758.97,301.0
759.29,309.0
759.6,319.0
759.91,310.0
760.23,306.0
760.54,312.0
760.85,310.0
761.17,297.0
761.48,294.0
761.79,294.0
762.11,294.0
762.42,291.0
762.73,288.0
763.05,296.0
763.36,293.0
763.67,291.0
763.98,304.0
764.3,295.0
764.61,290.0
764.92,298.0
765.23,292.0
765.55,278.0
765.86,279.0
766.17,278.0
766.48,280.0
766.8,278.0
767.11,277.0
767.42,273.0
767.73,278.0
768.05,288.0
768.36,287.0
768.67,286.0
768.98,270.0
769.29,278.0
769.61,277.0
769.92,268.0
770.23,275.0
770.54,271.0
770.85,280.0
771.17,270.0
771.48,263.0
771.79,255.0
772.1,261.0
772.41,263.0
772.72,263.0
773.03,253.0
773.35,255.0
773.66,259.0
773.97,254.0
774.28,246.0
774.59,244.0
774.9,243.0
775.21,242.0
775.52,248.0
775.83,249.0
776.15,244.0
776.46,243.0
776.77,236.0
777.08,239.0
777.39,249.0
777.7,232.0
778.01,249.0
778.32,241.0
778.63,239.0
778.94,243.0
779.25,242.0
779.56,242.0
779.87,233.0
780.18,234.0
780.49,236.0
780.8,240.0
781.11,233.0
781.42,238.0
781.73,235.0
782.04,241.0
782.35,228.0
782.66,232.0
782.97,236.0
783.28,239.0
783.59,227.0
783.9,230.0
784.21,226.0
784.52,222.0
784.83,219.0
785.14,222.0
785.45,220.0
785.76,207.0
786.06,219.0
786.37,222.0
786.68,213.0
786.99,218.0
787.3,223.0
787.61,214.0
787.92,217.0
788.23,216.0
788.54,215.0
788.84,217.0
789.15,213.0
789.46,213.0
789.77,209.0
790.08,213.0
790.39,198.0
790.7,200.0
791.0,196.0
791.31,202.0
791.62,202.0
791.93,196.0
792.24,199.0
792.54,196.0
792.85,201.0
793.16,197.0
793.47,211.0
793.78,206.0
794.08,205.0
794.39,202.0
794.7,209.0
795.01,204.0
795.31,197.0
795.62,196.0
795.93,194.0
796.24,191.0
796.54,195.0
796.85,187.0
797.16,188.0
797.47,185.0
797.77,193.0
798.08,187.0
798.39,185.0
798.69,182.0
799.0,176.0
799.31,179.0
799.62,184.0
799.92,183.0
800.23,175.0
800.54,180.0
800.84,179.0
801.15,177.0
801.46,175.0
801.76,175.0
802.07,172.0
802.37,179.0
802.68,170.0
802.99,179.0
803.29,173.0
803.6,174.0
803.91,168.0
804.21,172.0
804.52,177.0
804.82,173.0
805.13,172.0
805.44,175.0
805.74,166.0
806.05,176.0
806.35,171.0
806.66,169.0
806.96,172.0
807.27,164.0
807.57,167.0
807.88,171.0
808.19,163.0
808.49,164.0
808.8,165.0
809.1,164.0
809.41,167.0
809.71,159.0
810.02,164.0
810.32,159.0
810.63,159.0
810.93,158.0
811.24,157.0
811.54,154.0
811.85,155.0
812.15,154.0
812.45,157.0
812.76,156.0
813.06,157.0
813.37,150.0
813.67,158.0
813.98,151.0
814.28,150.0
814.58,155.0
814.89,152.0
815.19,151.0
815.5,152.0
815.8,145.0
816.11,143.0
816.41,145.0
816.71,147.0
817.02,141.0
817.32,139.0
817.62,150.0
817.93,150.0
818.23,146.0
818.53,145.0
818.84,144.0
819.14,139.0
819.44,150.0
819.75,146.0
820.05,139.0
820.35,141.0
820.66,141.0
820.96,149.0
821.26,138.0
821.57,140.0
821.87,141.0
822.17,144.0
822.48,144.0
822.78,138.0
823.08,133.0
823.38,140.0
823.69,134.0
823.99,142.0
824.29,135.0
824.59,146.0
824.9,142.0
825.2,137.0
825.5,137.0
825.8,135.0
826.1,130.0
826.41,130.0
826.71,131.0
827.01,135.0
827.31,138.0
827.61,137.0
827.92,135.0
828.22,136.0
828.52,125.0
828.82,133.0
829.12,132.0
829.42,130.0
829.73,130.0
830.03,129.0
830.33,127.0
830.63,129.0
830.93,122.0
831.23,124.0
831.53,125.0
831.83,129.0
832.14,127.0
832.44,128.0
832.74,127.0
833.04,124.0
833.34,125.0
833.64,127.0
833.94,120.0
834.24,127.0
834.54,123.0
834.84,128.0
835.14,121.0
835.44,127.0
835.74,121.0
836.04,123.0
836.34,119.0
836.64,120.0
836.95,118.0
837.25,121.0
837.55,115.0
837.85,120.0
838.15,120.0
838.45,116.0
838.74,118.0
839.04,115.0
839.34,119.0
839.64,119.0
839.94,116.0
840.24,115.0
840.54,113.0
840.84,118.0
841.14,116.0
841.44,115.0
841.74,115.0
842.04,117.0
842.34,120.0
842.64,114.0
842.94,117.0
843.24,116.0
843.53,113.0
843.83,116.0
844.13,106.0
844.43,115.0
844.73,109.0
845.03,115.0
845.33,109.0
845.63,111.0
845.92,114.0
846.22,115.0
846.52,112.0
846.82,111.0
847.12,110.0
847.42,108.0
847.71,107.0
848.01,104.0
848.31,107.0
848.61,111.0
848.91,111.0
849.2,107.0
849.5,103.0
849.8,107.0
850.1,107.0
850.39,101.0
850.69,104.0
850.99,108.0
851.29,102.0
851.59,110.0
851.88,108.0
852.18,105.0
852.48,105.0
852.77,96.0
853.07,105.0
853.37,107.0
853.67,115.0
853.96,102.0
854.26,103.0
854.56,111.0
854.85,112.0
855.15,104.0
855.45,106.0
855.74,106.0
856.04,107.0
856.34,106.0
856.63,102.0
856.93,103.0
857.23,104.0
857.52,109.0
857.82,105.0
858.11,107.0
858.41,105.0
858.71,104.0
859.0,96.0
859.3,102.0
859.59,101.0
859.89,107.0
860.19,99.0
860.48,98.0
860.78,100.0
861.07,95.0
861.37,96.0
861.66,102.0
861.96,103.0
862.26,99.0
862.55,100.0
862.85,100.0
863.14,90.0
863.44,98.0
863.73,102.0
864.03,106.0
864.32,101.0
864.62,96.0
864.91,100.0
865.21,94.0
865.5,92.0
865.8,95.0
866.09,97.0
866.39,98.0
866.68,91.0
866.97,96.0
867.27,93.0
867.56,88.0
867.86,91.0
868.15,98.0
868.45,95.0
868.74,94.0
869.03,88.0
869.33,91.0
869.62,89.0
869.92,90.0
870.21,92.0
870.5,87.0
870.8,91.0
871.09,91.0
871.39,89.0
871.68,92.0
871.97,97.0
872.27,95.0
872.56,88.0
872.85,89.0
873.15,90.0
873.44,85.0
873.73,90.0
874.03,94.0
874.32,90.0
874.61,90.0
874.9,90.0
875.2,91.0
875.49,91.0
875.78,92.0
