Wavelength,Intensity
350.47,70.0
351.07,72.0
351.67,75.0
352.27,68.0
352.87,70.0
353.47,68.0
354.07,68.0
354.66,71.0
355.26,67.0
355.86,69.0
356.46,70.0
357.06,73.0
357.66,65.0
358.26,68.0
358.86,69.0
359.46,65.0
360.05,65.0
360.65,68.0
361.25,71.0
361.85,72.0
362.45,70.0
363.05,69.0
363.65,70.0
364.25,66.0
364.84,66.0
365.44,69.0
366.04,67.0
366.64,67.0
367.24,66.0
367.84,69.0
368.44,74.0
369.04,73.0
369.63,70.0
370.23,64.0
370.83,66.0
371.43,71.0
372.03,70.0
372.63,71.0
373.23,70.0
373.83,71.0
374.42,66.0
375.02,64.0
375.62,67.0
376.22,73.0
376.82,71.0
377.42,72.0
378.02,70.0
378.62,69.0
379.21,65.0
379.81,70.0
380.41,72.0
381.01,69.0
381.61,69.0
382.21,69.0
382.81,70.0
383.4,66.0
384.0,69.0
384.6,70.0
385.2,67.0
385.8,66.0
386.4,68.0
387.0,67.0
387.59,77.0
388.19,68.0
388.79,70.0
389.39,71.0
389.99,67.0
390.59,72.0
391.19,71.0
391.78,67.0
392.38,71.0
392.98,68.0
393.58,65.0
394.18,65.0
394.78,69.0
395.38,68.0
395.97,66.0
396.57,71.0
397.17,69.0
397.77,63.0
398.37,69.0
398.97,63.0
399.56,74.0
400.16,70.0
400.76,67.0
401.36,71.0
401.96,70.0
402.56,65.0
403.15,67.0
403.75,72.0
404.35,66.0
404.95,68.0
405.55,70.0
406.15,67.0
406.75,67.0
407.34,69.0
407.94,68.0
408.54,69.0
409.14,71.0
409.74,70.0
410.34,64.0
410.93,62.0
411.53,67.0
412.13,69.0
412.73,64.0
413.33,67.0
413.93,66.0
414.52,75.0
415.12,67.0
415.72,66.0
416.32,63.0
416.92,66.0
417.51,71.0
418.11,67.0
418.71,68.0
419.31,67.0
419.91,65.0
420.51,66.0
421.1,72.0
421.7,68.0
422.3,72.0
422.9,69.0
423.5,71.0
424.1,63.0
424.69,65.0
425.29,75.0
425.89,74.0
426.49,70.0
427.09,70.0
427.68,70.0
428.28,70.0
428.88,69.0
429.48,71.0
430.08,67.0
430.68,66.0
431.27,65.0
431.87,67.0
432.47,68.0
433.07,67.0
433.67,67.0
434.26,70.0
434.86,69.0
435.46,71.0
436.06,68.0
436.66,69.0
437.25,68.0
437.85,72.0
438.45,67.0
439.05,69.0
439.65,71.0
440.24,70.0
440.84,65.0
441.44,71.0
442.04,73.0
442.64,67.0
443.23,68.0
443.83,69.0
444.43,68.0
445.03,71.0
445.63,71.0
446.22,66.0
446.82,70.0
447.42,67.0
448.02,69.0
448.62,70.0
449.21,67.0
449.81,67.0
450.41,70.0
451.01,67.0
451.61,67.0
452.2,67.0
452.8,67.0
453.4,67.0
454.0,73.0
454.6,66.0
455.19,67.0
455.79,68.0
456.39,68.0
456.99,67.0
457.58,67.0
458.18,69.0
458.78,70.0
459.38,71.0
459.98,65.0
460.57,71.0
461.17,69.0
461.77,66.0
462.37,69.0
462.96,74.0
463.56,70.0
464.16,70.0
464.76,72.0
465.36,70.0
465.95,72.0
466.55,70.0
467.15,65.0
467.75,67.0
468.34,70.0
468.94,71.0
469.54,66.0
470.14,70.0
470.73,71.0
471.33,69.0
471.93,71.0
472.53,70.0
473.13,69.0
473.72,69.0
474.32,67.0
474.92,71.0
475.52,68.0
476.11,74.0
476.71,71.0
477.31,66.0
477.91,66.0
478.5,69.0
479.1,65.0
479.7,73.0
480.3,68.0
480.89,71.0
481.49,70.0
482.09,66.0
482.69,74.0
483.28,70.0
483.88,73.0
484.48,70.0
485.08,68.0
485.67,71.0
486.27,68.0
486.87,66.0
487.47,70.0
488.06,67.0
488.66,69.0
489.26,67.0
489.86,65.0
490.45,70.0
491.05,70.0
491.65,68.0
492.25,74.0
492.84,69.0
493.44,63.0
494.04,62.0
494.64,72.0
495.23,70.0
495.83,73.0
496.43,64.0
497.03,68.0
497.62,67.0
498.22,67.0
498.82,68.0
499.42,68.0
500.01,65.0
500.61,69.0
501.21,68.0
501.81,66.0
502.4,76.0
503.0,67.0
503.6,68.0
504.19,68.0
504.79,65.0
505.39,73.0
505.99,69.0
506.58,71.0
507.18,71.0
507.78,71.0
508.38,66.0
508.97,64.0
509.57,69.0
510.17,70.0
510.76,69.0
511.36,70.0
511.96,66.0
512.56,67.0
513.15,67.0
513.75,67.0
514.35,68.0
514.94,69.0
515.54,69.0
516.14,67.0
516.74,68.0
517.33,76.0
517.93,70.0
518.53,65.0
519.12,70.0
519.72,73.0
520.32,66.0
520.92,67.0
521.51,67.0
522.11,67.0
522.71,63.0
523.3,67.0
523.9,69.0
524.5,70.0
525.09,69.0
525.69,67.0
526.29,70.0
526.89,67.0
527.48,74.0
528.08,65.0
528.68,69.0
529.27,70.0
529.87,71.0
530.47,69.0
531.06,73.0
531.66,70.0
532.26,70.0
532.86,68.0
533.45,70.0
534.05,71.0
534.65,68.0
535.24,72.0
535.84,72.0
536.44,71.0
537.03,66.0
537.63,67.0
538.23,67.0
538.82,67.0
539.42,65.0
540.02,68.0
540.61,66.0
541.21,68.0
541.81,66.0
542.41,66.0
543.0,65.0
543.6,63.0
544.2,63.0
544.79,70.0
545.39,70.0
545.99,68.0
546.58,69.0
547.18,65.0
547.78,68.0
548.37,67.0
548.97,68.0
549.57,67.0
550.16,72.0
550.76,65.0
551.36,71.0
551.95,67.0
552.55,69.0
553.15,70.0
553.74,65.0
554.34,68.0
554.94,69.0
555.53,65.0
556.13,69.0
556.73,63.0
557.32,70.0
557.92,68.0
558.52,66.0
559.11,71.0
559.71,70.0
560.31,68.0
560.9,68.0
561.5,68.0
562.1,69.0
562.69,67.0
563.29,66.0
563.89,71.0
564.48,70.0
565.08,69.0
565.67,66.0
566.27,70.0
566.87,71.0
567.46,67.0
568.06,70.0
568.66,72.0
569.25,71.0
569.85,70.0
570.45,68.0
571.04,72.0
571.64,64.0
572.24,71.0
572.83,70.0
573.43,70.0
574.03,70.0
574.62,68.0
575.22,66.0
575.81,65.0
576.41,72.0
577.01,69.0
577.6,66.0
578.2,68.0
578.8,68.0
579.39,66.0
579.99,70.0
580.58,68.0
581.18,68.0
581.78,64.0
582.37,71.0
582.97,68.0
583.57,67.0
584.16,68.0
584.76,65.0
585.35,67.0
585.95,68.0
586.55,71.0
587.14,68.0
587.74,65.0
588.34,65.0
588.93,67.0
589.53,67.0
590.12,74.0
590.72,72.0
591.32,71.0
591.91,67.0
592.51,66.0
593.11,69.0
593.7,72.0
594.3,71.0
594.89,67.0
595.49,72.0
596.09,73.0
596.68,67.0
597.28,68.0
597.87,69.0
598.47,68.0
599.07,66.0
599.66,67.0
600.26,68.0
600.85,68.0
601.45,70.0
602.05,70.0
602.64,68.0
603.24,71.0
603.83,66.0
604.43,71.0
605.03,67.0
605.62,72.0
606.22,71.0
606.81,65.0
607.41,67.0
608.01,65.0
608.6,67.0
609.2,68.0
609.79,67.0
610.39,69.0
610.98,72.0
611.58,68.0
612.18,68.0
612.77,71.0
613.37,70.0
613.96,67.0
614.56,64.0
615.16,70.0
615.75,66.0
616.35,68.0
616.94,70.0
617.54,71.0
618.13,70.0
618.73,72.0
619.33,68.0
619.92,67.0
620.52,68.0
621.11,72.0
621.71,70.0
622.3,65.0
622.9,67.0
623.5,71.0
624.09,66.0
624.69,74.0
625.28,73.0
625.88,70.0
626.47,66.0
627.07,66.0
627.67,67.0
628.26,70.0
628.86,67.0
629.45,67.0
630.05,68.0
630.64,71.0
631.24,67.0
631.83,67.0
632.43,67.0
633.03,68.0
633.62,73.0
634.22,72.0
634.81,68.0
635.41,72.0
636.0,62.0
636.6,66.0
637.19,66.0
637.79,64.0
638.39,72.0
638.98,71.0
639.58,66.0
640.17,73.0
640.77,72.0
641.36,69.0
641.96,71.0
642.55,66.0
643.15,71.0
643.74,71.0
644.34,68.0
644.93,65.0
645.53,71.0
646.13,72.0
646.72,68.0
647.32,64.0
647.91,67.0
648.51,70.0
649.1,67.0
649.7,70.0
650.29,71.0
650.89,64.0
651.48,67.0
652.08,67.0
652.67,63.0
653.27,67.0
653.86,65.0
654.46,71.0
655.05,71.0
655.65,69.0
656.25,69.0
656.84,68.0
657.44,65.0
658.03,67.0
658.63,67.0
659.22,63.0
659.82,71.0
660.41,68.0
661.01,69.0
661.6,70.0
662.2,67.0
662.79,71.0
663.39,66.0
663.98,70.0
664.58,70.0
665.17,69.0
665.77,64.0
666.36,74.0
666.96,72.0
667.55,71.0
668.15,65.0
668.74,71.0
669.34,68.0
669.93,68.0
670.53,66.0
671.12,65.0
671.72,71.0
672.31,68.0
672.91,74.0
673.5,68.0
674.1,71.0
674.69,70.0
675.29,73.0
675.88,66.0
676.48,62.0
677.07,66.0
677.67,68.0
678.26,72.0
678.86,72.0
679.45,64.0
680.05,69.0
680.64,70.0
681.23,63.0
681.83,76.0
682.42,67.0
683.02,68.0
683.61,68.0
684.21,68.0
684.8,68.0
685.4,68.0
685.99,69.0
686.59,67.0
687.18,67.0
687.78,73.0
688.37,71.0
688.97,70.0
689.56,66.0
690.16,68.0
690.75,69.0
691.34,62.0
691.94,70.0
692.53,67.0
693.13,69.0
693.72,73.0
694.32,71.0
694.91,69.0
695.51,70.0
696.1,67.0
696.7,66.0
697.29,70.0
697.89,72.0
698.48,71.0
699.07,67.0
699.67,70.0
700.26,71.0
700.86,71.0
701.45,68.0
702.05,71.0
702.64,75.0
703.24,67.0
703.83,64.0
704.42,69.0
705.02,71.0
705.61,69.0
706.21,71.0
706.8,69.0
707.4,69.0
707.99,66.0
708.58,71.0
709.18,71.0
709.77,71.0
710.37,71.0
710.96,72.0
711.56,66.0
712.15,66.0
712.75,66.0
713.34,64.0
713.93,65.0
714.53,68.0
715.12,67.0
715.72,73.0
716.31,71.0
716.9,67.0
717.5,66.0
718.09,70.0
718.69,69.0
719.28,69.0
719.88,63.0
720.47,68.0
721.06,67.0
721.66,70.0
722.25,70.0
722.85,70.0
723.44,69.0
724.03,73.0
724.63,68.0
725.22,68.0
725.82,69.0
726.41,66.0
727.0,67.0
727.6,67.0
728.19,69.0
728.79,69.0
729.38,69.0
729.97,68.0
730.57,64.0
731.16,70.0
731.76,67.0
732.35,72.0
732.94,67.0
733.54,66.0
734.13,66.0
734.73,69.0
735.32,69.0
735.91,72.0
736.51,68.0
737.1,66.0
737.7,71.0
738.29,67.0
738.88,66.0
739.48,70.0
740.07,67.0
740.66,65.0
741.26,63.0
741.85,69.0
742.45,72.0
743.04,70.0
743.63,72.0
744.23,71.0
744.82,65.0
745.41,70.0
746.01,69.0
746.6,67.0
747.2,71.0
747.79,71.0
748.38,74.0
748.98,71.0
749.57,65.0
750.16,67.0
750.76,65.0
751.35,71.0
751.95,71.0
752.54,64.0
753.13,66.0
753.73,67.0
754.32,70.0
754.91,66.0
755.51,67.0
756.1,73.0
756.69,67.0
757.29,71.0
757.88,65.0
758.47,70.0
759.07,69.0
759.66,66.0
760.25,66.0
760.85,74.0
761.44,70.0
762.03,72.0
762.63,68.0
763.22,69.0
763.82,70.0
764.41,70.0
765.0,69.0
765.6,69.0
766.19,70.0
766.78,70.0
767.38,66.0
767.97,69.0
768.56,68.0
769.16,72.0
769.75,66.0
770.34,67.0
770.94,67.0
771.53,74.0
772.12,68.0
772.71,70.0
773.31,67.0
773.9,71.0
774.49,62.0
775.09,64.0
775.68,71.0
776.27,69.0
776.87,68.0
777.46,65.0
778.05,63.0
778.65,67.0
779.24,67.0
779.83,66.0
780.43,71.0
781.02,75.0
781.61,69.0
782.21,70.0
782.8,66.0
783.39,65.0
783.98,71.0
784.58,70.0
785.17,63.0
785.76,69.0
786.36,71.0
786.95,70.0
787.54,67.0
788.14,65.0
788.73,71.0
789.32,71.0
789.91,69.0
790.51,69.0
791.1,69.0
791.69,66.0
792.29,70.0
792.88,67.0
793.47,74.0
794.06,71.0
794.66,67.0
795.25,65.0
795.84,66.0
796.44,67.0
797.03,69.0
797.62,71.0
798.21,66.0
798.81,71.0
799.4,67.0
799.99,70.0
800.58,72.0
801.18,69.0
801.77,65.0
802.36,69.0
802.96,68.0
803.55,68.0
804.14,68.0
804.73,66.0
805.33,68.0
805.92,67.0
806.51,62.0
807.1,68.0
807.7,72.0
808.29,69.0
808.88,69.0
809.47,72.0
810.07,65.0
810.66,67.0
811.25,66.0
811.84,64.0
812.44,68.0
813.03,69.0
813.62,69.0
814.21,72.0
814.81,64.0
815.4,68.0
815.99,66.0
816.58,69.0
817.18,68.0
817.77,66.0
818.36,67.0
818.95,69.0
819.55,64.0
820.14,69.0
820.73,64.0
821.32,66.0
821.92,70.0
822.51,64.0
823.1,69.0
823.69,68.0
824.28,70.0
824.88,68.0
825.47,69.0
826.06,71.0
826.65,69.0
827.25,67.0
827.84,69.0
828.43,68.0
829.02,68.0
829.61,69.0
830.21,69.0
830.8,70.0
831.39,74.0
831.98,68.0
832.58,72.0
833.17,70.0
833.76,70.0
834.35,70.0
834.94,75.0
835.54,73.0
836.13,68.0
836.72,70.0
837.31,70.0
837.9,65.0
838.5,65.0
839.09,63.0
839.68,70.0
840.27,71.0
840.86,66.0
841.46,66.0
842.05,65.0
842.64,69.0
843.23,71.0
843.82,66.0
844.42,74.0
845.01,69.0
845.6,67.0
846.19,67.0
846.78,71.0
847.37,70.0
847.97,67.0
848.56,71.0
849.15,68.0
849.74,68.0
850.33,73.0
850.93,64.0
851.52,68.0
852.11,72.0
852.7,69.0
853.29,68.0
853.88,68.0
854.48,67.0
855.07,69.0
855.66,68.0
856.25,69.0
856.84,67.0
857.43,69.0
858.03,72.0
858.62,64.0
859.21,66.0
859.8,66.0
860.39,64.0
860.98,72.0
861.58,64.0
862.17,64.0
862.76,69.0
863.35,67.0
863.94,67.0
864.53,68.0
865.12,65.0
865.72,63.0
866.31,66.0
866.9,68.0
867.49,70.0
868.08,70.0
868.67,68.0
869.26,67.0
869.86,73.0
870.45,73.0
871.04,68.0
871.63,64.0
872.22,67.0
872.81,67.0
873.4,68.0
873.99,71.0
874.59,67.0
875.18,71.0
875.77,67.0
876.36,68.0
876.95,69.0
877.54,67.0
878.13,70.0
878.72,71.0
879.32,67.0
879.91,71.0
880.5,70.0
881.09,72.0
881.68,64.0
882.27,65.0
882.86,66.0
883.45,66.0
884.04,68.0
884.64,64.0
885.23,65.0
885.82,65.0
886.41,69.0
887.0,67.0
887.59,65.0
888.18,70.0
888.77,69.0
889.36,72.0
889.96,68.0
890.55,69.0
891.14,66.0
891.73,72.0
892.32,67.0
892.91,67.0
893.5,70.0
894.09,70.0
894.68,71.0
895.27,67.0
895.86,70.0
896.46,68.0
897.05,69.0
897.64,62.0
898.23,66.0
898.82,70.0
899.41,69.0
900.0,69.0
900.59,72.0
901.18,67.0
901.77,69.0
902.36,72.0
902.95,67.0
903.54,68.0
904.13,71.0
904.73,63.0
905.32,69.0
905.91,69.0
906.5,68.0
907.09,71.0
907.68,67.0
908.27,77.0
908.86,70.0
909.45,66.0
910.04,65.0
910.63,70.0
911.22,70.0
911.81,72.0
912.4,68.0
912.99,69.0
913.58,66.0
914.17,64.0
914.76,72.0
915.36,71.0
915.95,70.0
916.54,67.0
917.13,65.0
917.72,69.0
918.31,70.0
918.9,66.0
919.49,67.0
920.08,67.0
920.67,69.0
921.26,67.0
921.85,66.0
922.44,66.0
923.03,73.0
923.62,66.0
924.21,68.0
924.8,68.0
925.39,66.0
925.98,67.0
926.57,69.0
927.16,72.0
927.75,68.0
928.34,67.0
928.93,69.0
929.52,71.0
930.11,64.0
930.7,72.0
931.29,69.0
931.88,68.0
932.47,66.0
933.06,65.0
933.65,67.0
934.24,66.0
934.83,71.0
935.42,62.0
936.01,65.0
936.6,74.0
937.19,69.0
937.78,71.0
938.37,67.0
938.96,66.0
939.55,68.0
940.14,66.0
940.73,67.0
941.32,69.0
941.91,70.0
942.5,67.0
943.09,70.0
943.68,69.0
944.27,67.0
944.86,67.0
945.45,67.0
946.04,69.0
946.63,72.0
947.22,74.0
947.81,69.0
948.4,70.0
948.99,65.0
949.58,70.0
950.17,71.0
950.76,64.0
951.35,69.0
951.94,69.0
952.53,67.0
953.12,69.0
953.71,71.0
954.3,70.0
954.89,68.0
955.48,66.0
956.06,67.0
956.65,66.0
957.24,71.0
957.83,67.0
958.42,72.0
959.01,67.0
959.6,68.0
960.19,74.0
960.78,70.0
961.37,66.0
961.96,71.0
962.55,68.0
963.14,68.0
963.73,67.0
964.32,69.0
964.91,69.0
965.5,66.0
966.09,69.0
966.67,67.0
967.26,70.0
967.85,72.0
968.44,69.0
969.03,67.0
969.62,69.0
970.21,63.0
970.8,66.0
971.39,69.0
971.98,68.0
972.57,67.0
973.16,71.0
973.75,74.0
974.33,66.0
974.92,67.0
975.51,65.0
976.1,65.0
976.69,67.0
977.28,68.0
977.87,71.0
978.46,66.0
979.05,63.0
979.64,66.0
980.23,70.0
980.81,67.0
981.4,71.0
981.99,69.0
982.58,72.0
983.17,64.0
983.76,64.0
984.35,72.0
984.94,68.0
985.53,69.0
986.11,72.0
986.7,68.0
987.29,68.0
987.88,67.0
988.47,69.0
989.06,72.0
989.65,72.0
990.24,65.0
990.83,67.0
991.41,70.0
992.0,66.0
992.59,67.0
993.18,67.0
993.77,67.0
994.36,69.0
994.95,67.0
995.53,68.0
996.12,71.0
996.71,68.0
997.3,67.0
997.89,67.0
998.48,69.0
999.07,66.0
999.65,73.0
1000.24,67.0
1000.83,68.0
1001.42,69.0
1002.01,73.0
1002.6,69.0
1003.19,66.0
1003.77,65.0
1004.36,67.0
1004.95,70.0
1005.54,73.0
1006.13,68.0
1006.72,71.0
1007.31,67.0
1007.89,67.0
1008.48,70.0
1009.07,67.0
1009.66,73.0
1010.25,71.0
1010.84,68.0
1011.42,70.0
1012.01,68.0
1012.6,68.0
1013.19,64.0
1013.78,67.0
1014.36,66.0
1014.95,72.0
1015.54,69.0
1016.13,65.0
1016.72,67.0
1017.31,76.0
1017.89,73.0
1018.48,68.0
1019.07,69.0
1019.66,70.0
1020.25,66.0
1020.83,65.0
1021.42,70.0
1022.01,71.0
1022.6,64.0
1023.19,72.0
1023.77,67.0
1024.36,68.0
1024.95,66.0
1025.54,68.0
1026.13,67.0
1026.71,70.0
1027.3,66.0
1027.89,65.0
1028.48,67.0
1029.07,67.0
1029.65,65.0
1030.24,66.0
1030.83,71.0
1031.42,67.0
1032.0,70.0
1032.59,63.0
1033.18,67.0
1033.77,67.0
1034.36,67.0
1034.94,68.0
1035.53,68.0
1036.12,74.0
1036.71,72.0
1037.29,66.0
1037.88,70.0
1038.47,74.0
1039.06,67.0
1039.65,65.0
1040.23,67.0
1040.82,69.0
1041.41,66.0
1042.0,65.0
1042.58,67.0
1043.17,66.0
1043.76,65.0
1044.35,65.0
1044.93,69.0
1045.52,70.0
1046.11,66.0
1046.7,67.0
1047.28,69.0
1047.87,69.0
1048.46,68.0
1049.05,67.0
1049.63,68.0
1050.22,70.0
1050.81,68.0
1051.39,68.0
1051.98,69.0
1052.57,70.0
1053.16,66.0
1053.74,69.0
1054.33,66.0
1054.92,70.0
1055.51,64.0
1056.09,69.0
1056.68,69.0
1057.27,69.0
1057.85,69.0
1058.44,70.0
1059.03,67.0
1059.62,69.0
1060.2,69.0
1060.79,69.0
1061.38,68.0
1061.96,70.0
1062.55,68.0
1063.14,72.0
1063.73,68.0
1064.31,69.0
1064.9,67.0
1065.49,67.0
1066.07,69.0
1066.66,68.0
1067.25,67.0
1067.83,69.0
1068.42,69.0
1069.01,70.0
1069.59,70.0
1070.18,67.0
1070.77,67.0
1071.36,72.0
1071.94,69.0
1072.53,68.0
1073.12,64.0
1073.7,68.0
1074.29,67.0
1074.88,63.0
1075.46,66.0
1076.05,70.0
1076.64,65.0
1077.22,67.0
1077.81,63.0
1078.4,70.0
1078.98,69.0
1079.57,64.0
1080.16,69.0
1080.74,71.0
1081.33,68.0
1081.92,69.0
1082.5,66.0
1083.09,70.0
1083.68,65.0
1084.26,68.0
1084.85,68.0
1085.44,70.0
1086.02,64.0
1086.61,65.0
1087.19,63.0
1087.78,67.0
1088.37,67.0
1088.95,72.0
1089.54,70.0
1090.13,70.0
1090.71,68.0
1091.3,71.0
1091.89,64.0
1092.47,69.0
1093.06,68.0
1093.64,68.0
1094.23,69.0
1094.82,68.0
1095.4,70.0
1095.99,72.0
1096.58,65.0
1097.16,72.0
1097.75,66.0
1098.33,69.0
1098.92,66.0
1099.51,66.0
1100.09,69.0
1100.68,65.0
1101.27,70.0
1101.85,68.0
1102.44,69.0
1103.02,70.0
1103.61,64.0
1104.2,68.0
1104.78,71.0
1105.37,65.0
1105.95,67.0
1106.54,71.0
1107.13,66.0
1107.71,66.0
1108.3,70.0
1108.88,70.0
1109.47,67.0
1110.05,68.0
1110.64,67.0
1111.23,71.0
1111.81,67.0
1112.4,67.0
1112.98,64.0
1113.57,68.0
1114.16,70.0
1114.74,63.0
1115.33,67.0
1115.91,68.0
1116.5,67.0
1117.08,66.0
1117.67,67.0
1118.26,72.0
1118.84,66.0
1119.43,64.0
1120.01,68.0
1120.6,66.0
1121.18,63.0
1121.77,67.0
1122.35,66.0
1122.94,64.0
1123.53,68.0
1124.11,68.0
1124.7,66.0
1125.28,67.0
1125.87,61.0
1126.45,70.0
1127.04,67.0
1127.62,68.0
1128.21,69.0
1128.79,66.0
1129.38,68.0
1129.97,67.0
1130.55,68.0
1131.14,66.0
1131.72,71.0
1132.31,68.0
1132.89,66.0
1133.48,65.0
1134.06,67.0
1134.65,68.0
1135.23,64.0
1135.82,64.0
1136.4,67.0
1136.99,66.0
1137.57,66.0
1138.16,72.0
1138.74,67.0
1139.33,67.0
1139.91,69.0
1140.5,65.0
1141.08,66.0
1141.67,65.0
1142.25,68.0
1142.84,69.0
1143.42,67.0
1144.01,65.0
1144.59,67.0
1145.18,68.0
1145.76,67.0
1146.35,70.0
1146.93,63.0
1147.52,69.0
1148.1,67.0
1148.69,63.0
1149.27,71.0
1149.86,68.0
1150.44,67.0
1151.03,64.0
1151.61,69.0
1152.2,68.0
1152.78,74.0
1153.37,70.0
1153.95,66.0
1154.54,64.0
1155.12,67.0
1155.71,69.0
1156.29,69.0
1156.88,70.0
1157.46,67.0
1158.04,69.0
1158.63,69.0
1159.21,69.0
1159.8,67.0
1160.38,67.0
1160.97,68.0
1161.55,68.0
1162.14,74.0
1162.72,68.0
1163.31,71.0
1163.89,70.0
1164.47,69.0
1165.06,67.0
1165.64,70.0
1166.23,66.0
1166.81,72.0
1167.4,67.0
1167.98,70.0
1168.56,63.0
1169.15,68.0
1169.73,69.0
1170.32,71.0
1170.9,67.0
1171.49,73.0
1172.07,71.0
1172.65,73.0
1173.24,67.0
1173.82,69.0
1174.41,67.0
1174.99,70.0
1175.58,67.0
1176.16,62.0
1176.74,65.0
1177.33,70.0
1177.91,72.0
1178.5,71.0
1179.08,70.0
1179.66,65.0
1180.25,67.0
1180.83,66.0
1181.42,70.0
1182.0,71.0
1182.58,67.0
1183.17,67.0
1183.75,66.0
1184.34,67.0
1184.92,64.0
1185.5,62.0
1186.09,72.0
1186.67,68.0
1187.25,64.0
1187.84,66.0
1188.42,70.0
1189.01,65.0
1189.59,67.0
1190.17,65.0
1190.76,67.0
1191.34,70.0
1191.92,69.0
1192.51,67.0
1193.09,64.0
1193.68,67.0
1194.26,71.0
1194.84,71.0
1195.43,73.0
1196.01,71.0
1196.59,70.0
1197.18,71.0
1197.76,67.0
1198.34,65.0
1198.93,69.0
1199.51,71.0
1200.09,65.0
1200.68,61.0
1201.26,65.0
1201.84,64.0
1202.43,70.0
1203.01,68.0
1203.59,72.0
1204.18,73.0
1204.76,62.0
1205.34,64.0
1205.93,62.0
1206.51,66.0
1207.09,72.0
1207.68,69.0
1208.26,63.0
1208.84,67.0
1209.43,70.0
1210.01,71.0
1210.59,76.0
1211.18,68.0
1211.76,67.0
1212.34,70.0
1212.93,72.0
1213.51,69.0
1214.09,69.0
1214.68,70.0
1215.26,69.0
1215.84,67.0
1216.42,64.0
1217.01,66.0
1217.59,66.0
1218.17,72.0
1218.76,72.0
1219.34,71.0
1219.92,66.0
1220.51,69.0
1221.09,70.0
1221.67,68.0
1222.25,68.0
1222.84,75.0
1223.42,69.0
1224.0,70.0
1224.59,75.0
1225.17,72.0
1225.75,71.0
1226.33,70.0
1226.92,71.0
1227.5,67.0
1228.08,72.0
1228.66,65.0
1229.25,67.0
1229.83,66.0
1230.41,68.0
1230.99,66.0
1231.58,70.0
1232.16,67.0
1232.74,63.0
1233.32,70.0
1233.91,64.0
1234.49,67.0
1235.07,67.0
1235.65,71.0
1236.24,67.0
1236.82,68.0
1237.4,65.0
1237.98,64.0
1238.57,66.0
1239.15,64.0
1239.73,68.0
1240.31,65.0
1240.9,71.0
1241.48,71.0
1242.06,68.0
1242.64,65.0
1243.22,65.0
1243.81,65.0
1244.39,68.0
1244.97,71.0
1245.55,69.0
1246.14,67.0
1246.72,69.0
1247.3,69.0
1247.88,71.0
1248.46,62.0
1249.05,64.0
1249.63,70.0
1250.21,62.0
1250.79,72.0
1251.37,70.0
1251.96,66.0
1252.54,67.0
1253.12,66.0
1253.7,71.0
1254.28,69.0
1254.87,68.0
1255.45,63.0
1256.03,71.0
1256.61,66.0
1257.19,72.0
1257.78,68.0
1258.36,63.0
1258.94,67.0
1259.52,66.0
1260.1,68.0
1260.68,69.0
1261.27,68.0
1261.85,71.0
1262.43,68.0
1263.01,67.0
1263.59,67.0
1264.17,69.0
1264.76,67.0
1265.34,65.0
1265.92,69.0
1266.5,65.0
1267.08,71.0
1267.66,66.0
1268.25,68.0
1268.83,71.0
1269.41,67.0
1269.99,67.0
1270.57,70.0
1271.15,73.0
1271.73,73.0
1272.32,70.0
1272.9,68.0
1273.48,63.0
1274.06,70.0
1274.64,73.0
1275.22,68.0
1275.8,69.0
1276.38,68.0
1276.97,69.0
1277.55,70.0
1278.13,69.0
1278.71,67.0
1279.29,66.0
1279.87,64.0
1280.45,68.0
1281.03,72.0
1281.62,69.0
1282.2,69.0
1282.78,68.0
1283.36,65.0
1283.94,70.0
1284.52,68.0
1285.1,69.0
1285.68,69.0
1286.26,71.0
1286.84,65.0
1287.43,68.0
1288.01,69.0
1288.59,67.0
1289.17,67.0
1289.75,67.0
1290.33,66.0
1290.91,72.0
1291.49,73.0
1292.07,68.0
1292.65,67.0
1293.23,69.0
1293.81,69.0
1294.4,70.0
1294.98,65.0
1295.56,70.0
1296.14,68.0
1296.72,67.0
1297.3,68.0
1297.88,67.0
1298.46,70.0
1299.04,63.0
1299.62,67.0
1300.2,69.0
1300.78,71.0
1301.36,68.0
1301.94,71.0
1302.52,72.0
1303.1,67.0
1303.68,76.0
1304.27,70.0
1304.85,65.0
1305.43,67.0
1306.01,69.0
1306.59,67.0
1307.17,72.0
1307.75,66.0
1308.33,68.0
1308.91,69.0
1309.49,70.0
1310.07,67.0
1310.65,66.0
1311.23,68.0
1311.81,71.0
1312.39,72.0
1312.97,67.0
1313.55,68.0
1314.13,69.0
1314.71,68.0
1315.29,68.0
1315.87,69.0
1316.45,71.0
1317.03,67.0
1317.61,70.0
1318.19,65.0
1318.77,72.0
1319.35,70.0
1319.93,70.0
1320.51,63.0
1321.09,70.0
1321.67,70.0
1322.25,68.0
1322.83,67.0
1323.41,68.0
1323.99,71.0
1324.57,67.0
1325.15,71.0
1325.73,67.0
1326.31,65.0
1326.89,63.0
1327.47,69.0
1328.05,68.0
1328.63,68.0
1329.21,67.0
1329.79,72.0
1330.37,67.0
1330.95,68.0
1331.53,69.0
1332.11,71.0
1332.68,65.0
1333.26,69.0
1333.84,67.0
1334.42,73.0
1335.0,74.0
1335.58,68.0
1336.16,67.0
1336.74,65.0
1337.32,66.0
1337.9,68.0
1338.48,67.0
1339.06,68.0
1339.64,68.0
1340.22,71.0
1340.8,66.0
1341.38,68.0
1341.96,71.0
1342.53,65.0
1343.11,66.0
1343.69,71.0
1344.27,69.0
1344.85,66.0
1345.43,68.0
1346.01,63.0
1346.59,70.0
1347.17,68.0
1347.75,68.0
1348.33,70.0
1348.91,70.0
1349.48,75.0
1350.06,70.0
1350.64,70.0
1351.22,73.0
1351.8,68.0
1352.38,72.0
1352.96,69.0
1353.54,68.0
1354.12,70.0
1354.69,70.0
1355.27,69.0
1355.85,69.0
1356.43,68.0
1357.01,68.0
1357.59,68.0
1358.17,67.0
1358.75,69.0
1359.32,65.0
1359.9,68.0
1360.48,67.0
1361.06,66.0
1361.64,65.0
1362.22,69.0
1362.8,67.0
1363.38,71.0
1363.95,73.0
1364.53,66.0
1365.11,69.0
1365.69,70.0
1366.27,65.0
1366.85,69.0
1367.43,70.0
1368.0,69.0
1368.58,68.0
1369.16,70.0
1369.74,65.0
1370.32,70.0
1370.9,70.0
1371.47,68.0
1372.05,72.0
1372.63,66.0
1373.21,71.0
1373.79,71.0
1374.37,67.0
1374.94,70.0
1375.52,72.0
1376.1,70.0
1376.68,68.0
1377.26,69.0
1377.83,68.0
1378.41,66.0
1378.99,66.0
1379.57,67.0
1380.15,65.0
1380.72,67.0
1381.3,72.0
1381.88,68.0
1382.46,72.0
1383.04,68.0
1383.61,70.0
1384.19,67.0
1384.77,66.0
1385.35,65.0
1385.93,68.0
1386.5,66.0
1387.08,67.0
1387.66,71.0
1388.24,69.0
1388.82,68.0
1389.39,67.0
1389.97,71.0
1390.55,67.0
1391.13,65.0
1391.7,61.0
1392.28,65.0
1392.86,72.0
1393.44,66.0
1394.01,68.0
1394.59,64.0
1395.17,64.0
1395.75,68.0
1396.32,62.0
1396.9,69.0
1397.48,74.0
1398.06,67.0
1398.63,68.0
1399.21,70.0
1399.79,69.0
1400.37,69.0
1400.94,71.0
1401.52,71.0
1402.1,67.0
1402.68,70.0
1403.25,64.0
1403.83,72.0
1404.41,69.0
1404.99,70.0
1405.56,67.0
1406.14,67.0
1406.72,66.0
1407.29,69.0
1407.87,67.0
1408.45,70.0
1409.03,67.0
1409.6,66.0
1410.18,66.0
