Wavelength,Intensity
350.25,78.0
350.61,78.0
350.97,79.0
351.34,84.0
351.7,81.0
352.07,83.0
352.43,78.0
352.79,76.0
353.16,78.0
353.52,76.0
353.88,79.0
354.25,84.0
354.61,83.0
354.97,78.0
355.34,81.0
355.7,83.0
356.06,80.0
356.43,82.0
356.79,79.0
357.15,81.0
357.52,78.0
357.88,84.0
358.24,84.0
358.6,84.0
358.97,82.0
359.33,83.0
359.69,82.0
360.06,84.0
360.42,84.0
360.78,84.0
361.14,86.0
361.51,83.0
361.87,87.0
362.23,86.0
362.6,89.0
362.96,83.0
363.32,89.0
363.68,89.0
364.05,92.0
364.41,86.0
364.77,93.0
365.13,91.0
365.5,88.0
365.86,91.0
366.22,91.0
366.58,93.0
366.95,94.0
367.31,90.0
367.67,95.0
368.03,91.0
368.39,90.0
368.76,88.0
369.12,91.0
369.48,91.0
369.84,100.0
370.2,96.0
370.57,101.0
370.93,97.0
371.29,97.0
371.65,95.0
372.01,103.0
372.38,98.0
372.74,95.0
373.1,96.0
373.46,98.0
373.82,97.0
374.18,94.0
374.55,101.0
374.91,94.0
375.27,106.0
375.63,97.0
375.99,99.0
376.35,99.0
376.71,98.0
377.08,104.0
377.44,100.0
377.8,110.0
378.16,109.0
378.52,101.0
378.88,107.0
379.24,103.0
379.6,111.0
379.97,115.0
380.33,109.0
380.69,105.0
381.05,108.0
381.41,111.0
381.77,107.0
382.13,110.0
382.49,110.0
382.85,109.0
383.21,109.0
383.57,100.0
383.94,110.0
384.3,110.0
384.66,116.0
385.02,109.0
385.38,114.0
385.74,109.0
386.1,107.0
386.46,112.0
386.82,122.0
387.18,121.0
387.54,117.0
387.9,115.0
388.26,120.0
388.62,113.0
388.98,114.0
389.34,118.0
389.7,117.0
390.06,113.0
390.42,113.0
390.78,118.0
391.14,126.0
391.5,123.0
391.86,131.0
392.22,131.0
392.58,129.0
392.94,115.0
393.3,117.0
393.66,122.0
394.02,127.0
394.38,118.0
394.74,123.0
395.1,121.0
395.46,122.0
395.82,127.0
396.18,120.0
396.54,135.0
396.9,136.0
397.26,132.0
397.62,125.0
397.98,126.0
398.34,129.0
398.7,132.0
399.05,118.0
399.41,118.0
399.77,126.0
400.13,130.0
400.49,125.0
400.85,131.0
401.21,126.0
401.57,132.0
401.93,125.0
402.29,131.0
402.65,127.0
403.0,127.0
403.36,129.0
403.72,134.0
404.08,150.0
404.44,130.0
404.8,133.0
405.16,135.0
405.52,132.0
405.87,138.0
406.23,139.0
406.59,130.0
406.95,132.0
407.31,128.0
407.67,132.0
408.03,138.0
408.38,139.0
408.74,148.0
409.1,149.0
409.46,131.0
409.82,143.0
410.17,145.0
410.53,139.0
410.89,143.0
411.25,128.0
411.61,133.0
411.97,147.0
412.32,142.0
412.68,146.0
413.04,131.0
413.4,130.0
413.75,137.0
414.11,134.0
414.47,129.0
414.83,149.0
415.19,139.0
415.54,132.0
415.9,141.0
416.26,142.0
416.62,146.0
416.97,125.0
417.33,143.0
417.69,145.0
418.05,149.0
418.4,131.0
418.76,137.0
419.12,144.0
419.48,146.0
419.83,156.0
420.19,143.0
420.55,151.0
420.9,165.0
421.26,159.0
421.62,141.0
421.98,161.0
422.33,159.0
422.69,163.0
423.05,157.0
423.4,146.0
423.76,138.0
424.12,153.0
424.47,156.0
424.83,144.0
425.19,141.0
425.54,140.0
425.9,155.0
426.26,158.0
426.61,159.0
426.97,134.0
427.33,155.0
427.68,151.0
428.04,165.0
428.4,171.0
428.75,171.0
429.11,160.0
429.47,177.0
429.82,180.0
430.18,166.0
430.53,161.0
430.89,155.0
431.25,152.0
431.6,159.0
431.96,160.0
432.31,156.0
432.67,165.0
433.03,171.0
433.38,162.0
433.74,167.0
434.09,163.0
434.45,167.0
434.81,150.0
435.16,160.0
435.52,151.0
435.87,154.0
436.23,153.0
436.58,152.0
436.94,157.0
437.3,168.0
437.65,171.0
438.01,169.0
438.36,160.0
438.72,163.0
439.07,153.0
439.43,157.0
439.78,170.0
440.14,183.0
440.49,171.0
440.85,172.0
441.2,174.0
441.56,170.0
441.91,176.0
442.27,168.0
442.62,167.0
442.98,176.0
443.33,165.0
443.69,168.0
444.04,172.0
444.4,157.0
444.75,179.0
445.11,186.0
445.46,180.0
445.82,177.0
446.17,166.0
446.53,177.0
446.88,187.0
447.23,165.0
447.59,174.0
447.94,167.0
448.3,171.0
448.65,168.0
449.01,180.0
449.36,187.0
449.72,184.0
450.07,188.0
450.42,179.0
450.78,181.0
451.13,186.0
451.49,172.0
451.84,175.0
452.19,166.0
452.55,163.0
452.9,178.0
453.26,178.0
453.61,193.0
453.96,167.0
454.32,183.0
454.67,179.0
455.02,159.0
455.38,174.0
455.73,177.0
456.09,190.0
456.44,188.0
456.79,186.0
457.15,172.0
457.5,182.0
457.85,182.0
458.21,183.0
458.56,182.0
458.91,181.0
459.27,175.0
459.62,180.0
459.97,178.0
460.32,179.0
460.68,175.0
461.03,176.0
461.38,175.0
461.74,189.0
462.09,179.0
462.44,174.0
462.8,187.0
463.15,181.0
463.5,184.0
463.85,195.0
464.21,195.0
464.56,204.0
464.91,187.0
465.26,175.0
465.62,189.0
465.97,200.0
466.32,190.0
466.67,188.0
467.03,187.0
467.38,187.0
467.73,188.0
468.08,191.0
468.44,194.0
468.79,184.0
469.14,182.0
469.49,186.0
469.85,187.0
470.2,211.0
470.55,205.0
470.9,197.0
471.25,195.0
471.61,206.0
471.96,206.0
472.31,216.0
472.66,215.0
473.01,210.0
473.36,227.0
473.72,226.0
474.07,218.0
474.42,229.0
474.77,227.0
475.12,228.0
475.47,238.0
475.83,240.0
476.18,226.0
476.53,229.0
476.88,245.0
477.23,238.0
477.58,240.0
477.93,237.0
478.28,240.0
478.64,241.0
478.99,245.0
479.34,261.0
479.69,254.0
480.04,261.0
480.39,270.0
480.74,259.0
481.09,271.0
481.44,262.0
481.79,272.0
482.15,268.0
482.5,268.0
482.85,279.0
483.2,294.0
483.55,298.0
483.9,310.0
484.25,349.0
484.6,374.0
484.95,404.0
485.3,398.0
485.65,354.0
486.0,344.0
486.35,314.0
486.7,302.0
487.05,317.0
487.4,297.0
487.75,295.0
488.1,295.0
488.45,300.0
488.8,293.0
489.15,303.0
489.5,302.0
489.85,306.0
490.2,302.0
490.55,308.0
490.9,311.0
491.25,307.0
491.6,295.0
491.95,300.0
492.3,311.0
492.65,307.0
493.0,309.0
493.35,307.0
493.7,310.0
494.05,303.0
494.4,322.0
494.75,320.0
495.1,312.0
495.45,325.0
495.8,314.0
496.15,319.0
496.5,314.0
496.84,309.0
497.19,313.0
497.54,314.0
497.89,319.0
498.24,317.0
498.59,331.0
498.94,311.0
499.29,313.0
499.64,318.0
499.99,321.0
500.33,323.0
500.68,324.0
501.03,325.0
501.38,320.0
501.73,321.0
502.08,331.0
502.43,335.0
502.77,330.0
503.12,325.0
503.47,323.0
503.82,324.0
504.17,321.0
504.52,325.0
504.86,338.0
505.21,338.0
505.56,332.0
505.91,331.0
506.26,323.0
506.61,331.0
506.95,332.0
507.3,331.0
507.65,333.0
508.0,327.0
508.35,331.0
508.69,333.0
509.04,328.0
509.39,324.0
509.74,325.0
510.08,332.0
510.43,335.0
510.78,341.0
511.13,333.0
511.47,332.0
511.82,340.0
512.17,338.0
512.52,331.0
512.86,335.0
513.21,339.0
513.56,337.0
513.91,341.0
514.25,338.0
514.6,338.0
514.95,339.0
515.3,346.0
515.64,337.0
515.99,336.0
516.34,342.0
516.68,343.0
517.03,334.0
517.38,347.0
517.72,344.0
518.07,347.0
518.42,346.0
518.76,354.0
519.11,339.0
519.46,346.0
519.8,345.0
520.15,347.0
520.5,340.0
520.84,344.0
521.19,350.0
521.54,357.0
521.88,354.0
522.23,345.0
522.58,336.0
522.92,351.0
523.27,352.0
523.61,348.0
523.96,351.0
524.31,357.0
524.65,362.0
525.0,355.0
525.34,350.0
525.69,353.0
526.04,359.0
526.38,355.0
526.73,353.0
527.07,358.0
527.42,361.0
527.76,369.0
528.11,358.0
528.46,368.0
528.8,367.0
529.15,356.0
529.49,347.0
529.84,351.0
530.18,353.0
530.53,357.0
530.87,355.0
531.22,363.0
531.56,370.0
531.91,360.0
532.25,359.0
532.6,367.0
532.94,365.0
533.29,363.0
533.63,366.0
533.98,368.0
534.32,366.0
534.67,374.0
535.01,359.0
535.36,365.0
535.7,364.0
536.05,367.0
536.39,371.0
536.74,366.0
537.08,365.0
537.43,369.0
537.77,383.0
538.12,372.0
538.46,373.0
538.8,378.0
539.15,363.0
539.49,378.0
539.84,379.0
540.18,376.0
540.53,384.0
540.87,378.0
541.21,381.0
541.56,376.0
541.9,373.0
542.25,384.0
542.59,375.0
542.93,376.0
543.28,380.0
543.62,373.0
543.97,382.0
544.31,384.0
544.65,384.0
545.0,387.0
545.34,386.0
545.68,381.0
546.03,376.0
546.37,392.0
546.71,401.0
547.06,399.0
547.4,395.0
547.74,387.0
548.09,383.0
548.43,388.0
548.77,377.0
549.12,375.0
549.46,380.0
549.8,387.0
550.15,380.0
550.49,386.0
550.83,393.0
551.17,392.0
551.52,396.0
551.86,391.0
552.2,389.0
552.55,384.0
552.89,400.0
553.23,385.0
553.57,391.0
553.92,396.0
554.26,406.0
554.6,395.0
554.94,401.0
555.29,404.0
555.63,405.0
555.97,398.0
556.31,404.0
556.66,399.0
557.0,386.0
557.34,398.0
557.68,392.0
558.02,389.0
558.37,395.0
558.71,397.0
559.05,416.0
559.39,419.0
559.73,428.0
560.08,417.0
560.42,411.0
560.76,413.0
561.1,403.0
561.44,404.0
561.78,417.0
562.13,420.0
562.47,415.0
562.81,424.0
563.15,417.0
563.49,427.0
563.83,419.0
564.17,422.0
564.52,414.0
564.86,417.0
565.2,415.0
565.54,419.0
565.88,423.0
566.22,422.0
566.56,441.0
566.9,438.0
567.24,448.0
567.59,448.0
567.93,458.0
568.27,474.0
568.61,491.0
568.95,484.0
569.29,478.0
569.63,499.0
569.97,514.0
570.31,508.0
570.65,524.0
570.99,516.0
571.33,512.0
571.67,519.0
572.01,527.0
572.35,525.0
572.69,543.0
573.03,550.0
573.37,567.0
573.71,572.0
574.05,562.0
574.39,551.0
574.73,551.0
575.07,544.0
575.41,557.0
575.75,567.0
576.09,584.0
576.43,608.0
576.77,622.0
577.11,624.0
577.45,608.0
577.79,593.0
578.13,590.0
578.47,576.0
578.81,584.0
579.15,574.0
579.49,582.0
579.83,623.0
580.17,654.0
580.51,692.0
580.85,694.0
581.19,660.0
581.53,648.0
581.87,596.0
582.2,570.0
582.54,554.0
582.88,551.0
583.22,556.0
583.56,577.0
583.9,604.0
584.24,626.0
584.58,609.0
584.92,592.0
585.25,587.0
585.59,576.0
585.93,579.0
586.27,587.0
586.61,597.0
586.95,588.0
587.29,579.0
587.62,575.0
587.96,551.0
588.3,538.0
588.64,539.0
588.98,537.0
589.31,533.0
589.65,527.0
589.99,519.0
590.33,509.0
590.67,504.0
591.01,523.0
591.34,532.0
591.68,572.0
592.02,599.0
592.36,581.0
592.69,585.0
593.03,567.0
593.37,557.0
593.71,564.0
594.04,576.0
594.38,570.0
594.72,544.0
595.06,547.0
595.39,552.0
595.73,546.0
596.07,549.0
596.41,549.0
596.74,543.0
597.08,543.0
597.42,561.0
597.76,569.0
598.09,581.0
598.43,572.0
598.77,569.0
599.1,584.0
599.44,582.0
599.78,579.0
600.11,573.0
600.45,587.0
600.79,578.0
601.12,565.0
601.46,566.0
601.8,582.0
602.13,570.0
602.47,589.0
602.81,586.0
603.14,562.0
603.48,568.0
603.82,563.0
604.15,551.0
604.49,559.0
604.82,562.0
605.16,555.0
605.5,545.0
605.83,567.0
606.17,575.0
606.5,574.0
606.84,558.0
607.18,575.0
607.51,555.0
607.85,564.0
608.18,545.0
608.52,554.0
608.86,552.0
609.19,556.0
609.53,549.0
609.86,550.0
610.2,558.0
610.53,553.0
610.87,536.0
611.2,542.0
611.54,539.0
611.87,533.0
612.21,539.0
612.54,542.0
612.88,545.0
613.21,543.0
613.55,542.0
613.88,554.0
614.22,550.0
614.55,553.0
614.89,547.0
615.22,531.0
615.56,527.0
615.89,519.0
616.23,525.0
616.56,515.0
616.9,525.0
617.23,520.0
617.57,513.0
617.9,506.0
618.24,505.0
618.57,509.0
618.9,505.0
619.24,514.0
619.57,501.0
619.91,502.0
620.24,498.0
620.58,491.0
620.91,502.0
621.24,509.0
621.58,514.0
621.91,497.0
622.25,496.0
622.58,514.0
622.91,513.0
623.25,501.0
623.58,505.0
623.91,483.0
624.25,508.0
624.58,495.0
624.92,485.0
625.25,485.0
625.58,477.0
625.92,488.0
626.25,483.0
626.58,487.0
626.92,476.0
627.25,473.0
627.58,463.0
627.91,484.0
628.25,472.0
628.58,476.0
628.91,476.0
629.25,479.0
629.58,464.0
629.91,474.0
630.25,478.0
630.58,468.0
630.91,461.0
631.24,456.0
631.58,460.0
631.91,458.0
632.24,447.0
632.57,458.0
632.91,459.0
633.24,457.0
633.57,448.0
633.9,443.0
634.24,459.0
634.57,449.0
634.9,450.0
635.23,450.0
635.56,458.0
635.9,463.0
636.23,452.0
636.56,455.0
636.89,455.0
637.22,445.0
637.56,450.0
637.89,440.0
638.22,452.0
638.55,453.0
638.88,438.0
639.21,448.0
639.55,456.0
639.88,435.0
640.21,434.0
640.54,433.0
640.87,435.0
641.2,436.0
641.53,436.0
641.87,427.0
642.2,434.0
642.53,431.0
642.86,427.0
643.19,441.0
643.52,430.0
643.85,428.0
644.18,429.0
644.51,421.0
644.84,423.0
645.18,425.0
645.51,433.0
645.84,430.0
646.17,430.0
646.5,427.0
646.83,436.0
647.16,429.0
647.49,434.0
647.82,443.0
648.15,441.0
648.48,436.0
648.81,441.0
649.14,432.0
649.47,439.0
649.8,434.0
650.13,435.0
650.46,439.0
650.79,424.0
651.12,422.0
651.45,430.0
651.78,440.0
652.11,438.0
652.44,425.0
652.77,427.0
653.1,435.0
653.43,428.0
653.76,441.0
654.09,451.0
654.42,691.0
654.75,1170.0
655.08,1439.0
655.41,1542.0
655.74,1224.0
656.07,1001.0
656.39,839.0
656.72,704.0
657.05,590.0
657.38,509.0
657.71,470.0
658.04,445.0
658.37,448.0
658.7,436.0
659.03,427.0
659.36,427.0
659.68,421.0
660.01,422.0
660.34,412.0
660.67,420.0
661.0,420.0
661.33,412.0
661.66,409.0
661.98,419.0
662.31,410.0
662.64,408.0
662.97,416.0
663.3,408.0
663.63,411.0
663.95,415.0
664.28,413.0
664.61,419.0
664.94,419.0
665.27,419.0
665.59,405.0
665.92,412.0
666.25,401.0
666.58,408.0
666.91,412.0
667.23,402.0
667.56,400.0
667.89,411.0
668.22,413.0
668.54,413.0
668.87,402.0
669.2,409.0
669.53,419.0
669.85,411.0
670.18,407.0
670.51,404.0
670.83,414.0
671.16,426.0
671.49,415.0
671.82,424.0
672.14,414.0
672.47,415.0
672.8,423.0
673.12,414.0
673.45,410.0
673.78,396.0
674.1,401.0
674.43,405.0
674.76,395.0
675.08,415.0
675.41,393.0
675.74,402.0
676.06,405.0
676.39,401.0
676.72,402.0
677.04,412.0
677.37,404.0
677.69,408.0
678.02,403.0
678.35,407.0
678.67,400.0
679.0,408.0
679.32,408.0
679.65,406.0
679.98,401.0
680.3,394.0
680.63,393.0
680.95,399.0
681.28,403.0
681.6,386.0
681.93,394.0
682.26,383.0
682.58,387.0
682.91,395.0
683.23,405.0
683.56,404.0
683.88,406.0
684.21,407.0
684.53,409.0
684.86,418.0
685.18,413.0
685.51,409.0
685.83,405.0
686.16,386.0
686.48,383.0
686.81,388.0
687.13,382.0
687.46,387.0
687.78,383.0
688.11,369.0
688.43,387.0
688.76,389.0
689.08,373.0
689.41,372.0
689.73,376.0
690.05,383.0
690.38,383.0
690.7,367.0
691.03,373.0
691.35,378.0
691.68,371.0
692.0,379.0
692.32,381.0
692.65,373.0
692.97,381.0
693.29,374.0
693.62,366.0
693.94,364.0
694.27,367.0
694.59,363.0
694.91,366.0
695.24,372.0
695.56,358.0
695.88,359.0
696.21,375.0
696.53,360.0
696.85,379.0
697.18,362.0
697.5,361.0
697.82,365.0
698.15,357.0
698.47,358.0
698.79,357.0
699.12,349.0
699.44,355.0
699.76,349.0
700.09,355.0
700.41,353.0
700.73,342.0
701.05,348.0
701.38,345.0
701.7,355.0
702.02,347.0
702.34,340.0
702.67,351.0
702.99,348.0
703.31,340.0
703.63,345.0
703.96,341.0
704.28,344.0
704.6,335.0
704.92,337.0
705.25,336.0
705.57,343.0
705.89,344.0
706.21,356.0
706.53,361.0
706.86,355.0
707.18,362.0
707.5,359.0
707.82,360.0
708.14,353.0
708.46,355.0
708.79,338.0
709.11,347.0
709.43,339.0
709.75,353.0
710.07,349.0
710.39,341.0
710.71,338.0
711.04,330.0
711.36,336.0
711.68,335.0
712.0,335.0
712.32,338.0
712.64,342.0
712.96,333.0
713.28,337.0
713.6,343.0
713.92,340.0
714.24,334.0
714.57,338.0
714.89,332.0
715.21,327.0
715.53,325.0
715.85,311.0
716.17,313.0
716.49,324.0
716.81,314.0
717.13,319.0
717.45,322.0
717.77,318.0
718.09,321.0
718.41,323.0
718.73,320.0
719.05,320.0
719.37,313.0
719.69,316.0
720.01,327.0
720.33,314.0
720.65,320.0
720.97,314.0
721.29,313.0
721.61,315.0
721.93,313.0
722.25,304.0
722.57,306.0
722.89,301.0
723.21,306.0
723.52,303.0
723.84,299.0
724.16,309.0
724.48,309.0
724.8,314.0
725.12,319.0
725.44,312.0
725.76,309.0
726.08,306.0
726.4,304.0
726.72,304.0
727.03,306.0
727.35,311.0
727.67,299.0
727.99,309.0
728.31,303.0
728.63,293.0
728.95,302.0
729.26,302.0
729.58,304.0
729.9,310.0
730.22,291.0
730.54,308.0
730.86,310.0
731.17,304.0
731.49,304.0
731.81,317.0
732.13,303.0
732.45,292.0
732.76,296.0
733.08,300.0
733.4,305.0
733.72,299.0
734.03,309.0
734.35,306.0
734.67,301.0
734.99,296.0
735.3,300.0
735.62,300.0
735.94,303.0
736.26,298.0
736.57,300.0
736.89,292.0
737.21,286.0
737.53,285.0
737.84,278.0
738.16,283.0
738.48,282.0
738.79,291.0
739.11,285.0
739.43,295.0
739.74,283.0
740.06,281.0
740.38,281.0
740.69,275.0
741.01,270.0
741.33,266.0
741.64,271.0
741.96,263.0
742.28,273.0
742.59,267.0
742.91,260.0
743.23,269.0
743.54,262.0
743.86,256.0
744.17,256.0
744.49,257.0
744.81,254.0
745.12,257.0
745.44,252.0
745.75,254.0
746.07,256.0
746.38,251.0
746.7,256.0
747.02,252.0
747.33,243.0
747.65,247.0
747.96,251.0
748.28,244.0
748.59,250.0
748.91,249.0
749.22,254.0
749.54,254.0
749.85,251.0
750.17,255.0
750.48,255.0
750.8,254.0
751.11,244.0
751.43,252.0
751.74,244.0
752.06,244.0
752.37,250.0
752.69,243.0
753.0,247.0
753.32,253.0
753.63,259.0
753.95,253.0
754.26,250.0
754.58,252.0
754.89,244.0
755.2,247.0
755.52,250.0
755.83,257.0
756.15,256.0
756.46,266.0
756.78,259.0
757.09,262.0
757.4,271.0
757.72,268.0
758.03,249.0
758.34,251.0
758.66,255.0
758.97,250.0
759.29,251.0
759.6,245.0
759.91,250.0
760.23,254.0
760.54,252.0
760.85,246.0
761.17,260.0
761.48,242.0
761.79,241.0
762.11,240.0
762.42,234.0
762.73,238.0
763.05,243.0
763.36,244.0
763.67,237.0
763.98,244.0
764.3,252.0
764.61,248.0
764.92,247.0
765.23,241.0
765.55,242.0
765.86,224.0
766.17,235.0
766.48,222.0
766.8,226.0
767.11,226.0
767.42,228.0
767.73,221.0
768.05,237.0
768.36,243.0
768.67,235.0
768.98,226.0
769.29,230.0
769.61,223.0
769.92,225.0
770.23,237.0
770.54,225.0
770.85,222.0
771.17,228.0
771.48,223.0
771.79,220.0
772.1,220.0
772.41,222.0
772.72,217.0
773.03,210.0
773.35,211.0
773.66,212.0
773.97,212.0
774.28,207.0
774.59,201.0
774.9,207.0
775.21,208.0
775.52,206.0
775.83,201.0
776.15,202.0
776.46,199.0
776.77,202.0
777.08,197.0
777.39,196.0
777.7,197.0
778.01,203.0
778.32,209.0
778.63,203.0
778.94,201.0
779.25,202.0
779.56,201.0
779.87,199.0
780.18,200.0
780.49,203.0
780.8,201.0
781.11,196.0
781.42,195.0
781.73,200.0
782.04,198.0
782.35,189.0
782.66,193.0
782.97,197.0
783.28,204.0
783.59,195.0
783.9,191.0
784.21,177.0
784.52,185.0
784.83,184.0
785.14,190.0
785.45,184.0
785.76,185.0
786.06,183.0
786.37,194.0
786.68,185.0
786.99,188.0
787.3,180.0
787.61,178.0
787.92,190.0
788.23,187.0
788.54,182.0
788.84,181.0
789.15,180.0
789.46,174.0
789.77,173.0
790.08,183.0
790.39,171.0
790.7,185.0
791.0,176.0
791.31,175.0
791.62,177.0
791.93,168.0
792.24,173.0
792.54,176.0
792.85,174.0
793.16,177.0
793.47,177.0
793.78,186.0
794.08,182.0
794.39,170.0
794.7,173.0
795.01,171.0
795.31,170.0
795.62,161.0
795.93,166.0
796.24,163.0
796.54,167.0
796.85,168.0
797.16,161.0
797.47,164.0
797.77,162.0
798.08,162.0
798.39,162.0
798.69,153.0
799.0,160.0
799.31,155.0
799.62,153.0
799.92,152.0
800.23,158.0
800.54,158.0
800.84,154.0
801.15,153.0
801.46,153.0
801.76,148.0
802.07,151.0
802.37,150.0
802.68,147.0
802.99,151.0
803.29,153.0
803.6,149.0
803.91,143.0
804.21,146.0
804.52,150.0
804.82,145.0
805.13,146.0
805.44,151.0
805.74,148.0
806.05,151.0
806.35,153.0
806.66,144.0
806.96,144.0
807.27,144.0
807.57,143.0
807.88,148.0
808.19,147.0
808.49,144.0
808.8,147.0
809.1,142.0
809.41,142.0
809.71,139.0
810.02,139.0
810.32,137.0
810.63,133.0
810.93,138.0
811.24,139.0
811.54,143.0
811.85,141.0
812.15,136.0
812.45,137.0
812.76,137.0
813.06,134.0
813.37,136.0
813.67,140.0
813.98,132.0
814.28,130.0
814.58,130.0
814.89,126.0
815.19,129.0
815.5,127.0
815.8,128.0
816.11,130.0
816.41,127.0
816.71,131.0
817.02,133.0
817.32,130.0
817.62,132.0
817.93,127.0
818.23,122.0
818.53,125.0
818.84,131.0
819.14,130.0
819.44,130.0
819.75,129.0
820.05,125.0
820.35,125.0
820.66,129.0
820.96,125.0
821.26,125.0
821.57,125.0
821.87,120.0
822.17,123.0
822.48,127.0
822.78,129.0
823.08,125.0
823.38,123.0
823.69,122.0
823.99,123.0
824.29,115.0
824.59,122.0
824.9,117.0
825.2,125.0
825.5,126.0
825.8,124.0
826.1,118.0
826.41,118.0
826.71,122.0
827.01,121.0
827.31,121.0
827.61,119.0
827.92,119.0
828.22,118.0
828.52,121.0
828.82,118.0
829.12,119.0
829.42,116.0
829.73,112.0
830.03,112.0
830.33,113.0
830.63,115.0
830.93,115.0
831.23,114.0
831.53,119.0
831.83,111.0
832.14,112.0
832.44,113.0
832.74,107.0
833.04,113.0
833.34,111.0
833.64,119.0
833.94,111.0
834.24,110.0
834.54,113.0
834.84,111.0
835.14,109.0
835.44,110.0
835.74,109.0
836.04,112.0
836.34,108.0
836.64,111.0
836.95,108.0
837.25,110.0
837.55,109.0
837.85,105.0
838.15,106.0
838.45,103.0
838.74,108.0
839.04,103.0
839.34,104.0
839.64,105.0
839.94,107.0
840.24,109.0
840.54,103.0
840.84,106.0
841.14,101.0
841.44,96.0
841.74,102.0
842.04,107.0
842.34,102.0
842.64,103.0
842.94,100.0
843.24,103.0
843.53,105.0
843.83,104.0
844.13,97.0
844.43,107.0
844.73,104.0
845.03,102.0
845.33,101.0
845.63,102.0
845.92,104.0
846.22,95.0
846.52,101.0
846.82,98.0
847.12,102.0
847.42,97.0
847.71,99.0
848.01,102.0
848.31,98.0
848.61,98.0
848.91,96.0
849.2,101.0
849.5,93.0
849.8,93.0
850.1,97.0
850.39,95.0
850.69,97.0
850.99,96.0
851.29,99.0
851.59,93.0
851.88,97.0
852.18,94.0
852.48,96.0
852.77,94.0
853.07,97.0
853.37,96.0
853.67,92.0
853.96,100.0
854.26,100.0
854.56,100.0
854.85,95.0
855.15,96.0
855.45,98.0
855.74,96.0
856.04,92.0
856.34,98.0
856.63,94.0
856.93,94.0
857.23,92.0
857.52,93.0
857.82,93.0
858.11,92.0
858.41,92.0
858.71,91.0
859.0,83.0
859.3,90.0
859.59,90.0
859.89,86.0
860.19,91.0
860.48,86.0
860.78,91.0
861.07,91.0
861.37,94.0
861.66,86.0
861.96,88.0
862.26,87.0
862.55,91.0
862.85,87.0
863.14,91.0
863.44,86.0
863.73,85.0
864.03,84.0
864.32,84.0
864.62,89.0
864.91,86.0
865.21,87.0
865.5,87.0
865.8,84.0
866.09,86.0
866.39,85.0
866.68,83.0
866.97,86.0
867.27,82.0
867.56,85.0
867.86,83.0
868.15,90.0
868.45,83.0
868.74,84.0
869.03,85.0
869.33,85.0
869.62,86.0
869.92,79.0
870.21,79.0
870.5,89.0
870.8,79.0
871.09,84.0
871.39,81.0
871.68,81.0
871.97,80.0
872.27,85.0
872.56,86.0
872.85,82.0
873.15,85.0
873.44,83.0
873.73,84.0
874.03,80.0
874.32,85.0
874.61,83.0
874.9,85.0
875.2,82.0
875.49,79.0
875.78,77.0
