Wavelength,Intensity
350.34,197.0
350.7,214.0
351.07,204.0
351.43,203.0
351.8,209.0
352.16,214.0
352.53,217.0
352.89,216.0
353.25,210.0
353.62,208.0
353.98,211.0
354.35,221.0
354.71,213.0
355.08,218.0
355.44,220.0
355.8,229.0
356.17,227.0
356.53,221.0
356.9,226.0
357.26,231.0
357.63,232.0
357.99,235.0
358.35,239.0
358.72,238.0
359.08,235.0
359.44,245.0
359.81,236.0
360.17,244.0
360.54,237.0
360.9,246.0
361.26,247.0
361.63,252.0
361.99,252.0
362.35,255.0
362.72,261.0
363.08,265.0
363.44,258.0
363.81,255.0
364.17,264.0
364.53,267.0
364.9,270.0
365.26,271.0
365.62,277.0
365.99,269.0
366.35,285.0
366.71,290.0
367.08,287.0
367.44,291.0
367.8,298.0
368.17,284.0
368.53,298.0
368.89,290.0
369.25,306.0
369.62,301.0
369.98,291.0
370.34,302.0
370.71,301.0
371.07,319.0
371.43,304.0
371.79,315.0
372.16,298.0
372.52,320.0
372.88,305.0
373.24,317.0
373.61,328.0
373.97,315.0
374.33,334.0
374.69,329.0
375.05,320.0
375.42,319.0
375.78,338.0
376.14,347.0
376.5,337.0
376.87,326.0
377.23,343.0
377.59,340.0
377.95,346.0
378.31,354.0
378.68,382.0
379.04,375.0
379.4,375.0
379.76,372.0
380.12,382.0
380.48,391.0
380.85,404.0
381.21,410.0
381.57,396.0
381.93,399.0
382.29,429.0
382.65,411.0
383.02,418.0
383.38,417.0
383.74,407.0
384.1,439.0
384.46,389.0
384.82,448.0
385.18,446.0
385.55,435.0
385.91,417.0
386.27,446.0
386.63,435.0
386.99,453.0
387.35,471.0
387.71,471.0
388.07,478.0
388.43,477.0
388.8,465.0
389.16,488.0
389.52,476.0
389.88,451.0
390.24,479.0
390.6,479.0
390.96,436.0
391.32,447.0
391.68,513.0
392.04,544.0
392.4,530.0
392.76,552.0
393.12,567.0
393.48,537.0
393.84,473.0
394.2,499.0
394.57,518.0
394.93,536.0
395.29,461.0
395.65,513.0
396.01,503.0
396.37,525.0
396.73,518.0
397.09,515.0
397.45,590.0
397.81,596.0
398.17,574.0
398.53,571.0
398.89,614.0
399.25,546.0
399.61,553.0
399.97,480.0
400.33,501.0
400.69,510.0
401.04,541.0
401.4,569.0
401.76,560.0
402.12,527.0
402.48,579.0
402.84,546.0
403.2,529.0
403.56,538.0
403.92,574.0
404.28,571.0
404.64,557.0
405.0,650.0
405.36,573.0
405.72,581.0
406.08,605.0
406.44,598.0
406.79,611.0
407.15,609.0
407.51,512.0
407.87,566.0
408.23,580.0
408.59,584.0
408.95,577.0
409.31,595.0
409.67,645.0
410.03,652.0
410.38,588.0
410.74,602.0
411.1,596.0
411.46,578.0
411.82,598.0
412.18,537.0
412.54,565.0
412.89,601.0
413.25,631.0
413.61,625.0
413.97,568.0
414.33,512.0
414.69,559.0
415.04,554.0
415.4,538.0
415.76,640.0
416.12,577.0
416.48,544.0
416.83,596.0
417.19,592.0
417.55,599.0
417.91,537.0
418.27,625.0
418.62,620.0
418.98,603.0
419.34,562.0
419.7,556.0
420.06,626.0
420.41,633.0
420.77,700.0
421.13,621.0
421.49,622.0
421.84,736.0
422.2,682.0
422.56,593.0
422.92,668.0
423.27,703.0
423.63,729.0
423.99,688.0
424.34,583.0
424.7,580.0
425.06,623.0
425.42,622.0
425.77,578.0
426.13,596.0
426.49,606.0
426.84,656.0
427.2,670.0
427.56,706.0
427.92,545.0
428.27,662.0
428.63,636.0
428.99,726.0
429.34,724.0
429.7,771.0
430.06,678.0
430.41,807.0
430.77,777.0
431.13,715.0
431.48,668.0
431.84,676.0
432.2,635.0
432.55,664.0
432.91,644.0
433.26,643.0
433.62,722.0
433.98,777.0
434.33,679.0
434.69,697.0
435.05,681.0
435.4,676.0
435.76,647.0
436.11,705.0
436.47,638.0
436.83,625.0
437.18,629.0
437.54,615.0
437.89,659.0
438.25,706.0
438.6,715.0
438.96,718.0
439.32,655.0
439.67,635.0
440.03,610.0
440.38,666.0
440.74,715.0
441.09,788.0
441.45,684.0
441.8,717.0
442.16,758.0
442.52,710.0
442.87,764.0
443.23,700.0
443.58,707.0
443.94,729.0
444.29,704.0
444.65,721.0
445.0,702.0
445.36,644.0
445.71,733.0
446.07,781.0
446.42,790.0
446.78,767.0
447.13,699.0
447.49,739.0
447.84,825.0
448.2,658.0
448.55,676.0
448.9,686.0
449.26,709.0
449.61,701.0
449.97,752.0
450.32,752.0
450.68,758.0
451.03,793.0
451.39,735.0
451.74,699.0
452.09,748.0
452.45,708.0
452.8,693.0
453.16,648.0
453.51,672.0
453.87,688.0
454.22,767.0
454.57,794.0
454.93,638.0
455.28,748.0
455.64,703.0
455.99,614.0
456.34,655.0
456.7,685.0
457.05,769.0
457.4,753.0
457.76,779.0
458.11,731.0
458.46,730.0
458.82,729.0
459.17,729.0
459.53,735.0
459.88,714.0
460.23,674.0
460.59,702.0
460.94,721.0
461.29,747.0
461.65,688.0
462.0,643.0
462.35,668.0
462.7,742.0
463.06,703.0
463.41,696.0
463.76,732.0
464.12,729.0
464.47,717.0
464.82,755.0
465.18,787.0
465.53,824.0
465.88,712.0
466.23,708.0
466.59,730.0
466.94,783.0
467.29,732.0
467.64,741.0
468.0,727.0
468.35,723.0
468.7,726.0
469.05,757.0
469.41,747.0
469.76,720.0
470.11,673.0
470.46,724.0
470.82,713.0
471.17,790.0
471.52,785.0
471.87,784.0
472.22,744.0
472.58,782.0
472.93,783.0
473.28,833.0
473.63,841.0
473.98,851.0
474.34,873.0
474.69,873.0
475.04,892.0
475.39,897.0
475.74,904.0
476.09,915.0
476.45,926.0
476.8,913.0
477.15,893.0
477.5,890.0
477.85,979.0
478.2,962.0
478.55,945.0
478.91,943.0
479.26,954.0
479.61,977.0
479.96,1000.0
480.31,1012.0
480.66,1039.0
481.01,1045.0
481.36,1040.0
481.71,1036.0
482.07,1093.0
482.42,1081.0
482.77,1071.0
483.12,1064.0
483.47,1090.0
483.82,1087.0
484.17,1157.0
484.52,1203.0
484.87,1249.0
485.22,1475.0
485.57,1661.0
485.92,1815.0
486.27,1684.0
486.62,1518.0
486.97,1432.0
487.32,1270.0
487.68,1204.0
488.03,1231.0
488.38,1192.0
488.73,1187.0
489.08,1194.0
489.43,1179.0
489.78,1173.0
490.13,1207.0
490.48,1206.0
490.83,1201.0
491.18,1195.0
491.53,1210.0
491.88,1201.0
492.23,1201.0
492.58,1199.0
492.92,1176.0
493.27,1210.0
493.62,1216.0
493.97,1229.0
494.32,1219.0
494.67,1224.0
495.02,1191.0
495.37,1231.0
495.72,1225.0
496.07,1253.0
496.42,1267.0
496.77,1249.0
497.12,1243.0
497.47,1209.0
497.82,1203.0
498.17,1209.0
498.51,1233.0
498.86,1252.0
499.21,1251.0
499.56,1264.0
499.91,1230.0
500.26,1221.0
500.61,1223.0
500.96,1249.0
501.31,1266.0
501.65,1263.0
502.0,1264.0
502.35,1265.0
502.7,1281.0
503.05,1275.0
503.4,1271.0
503.75,1268.0
504.09,1246.0
504.44,1252.0
504.79,1254.0
505.14,1254.0
505.49,1271.0
505.83,1261.0
506.18,1283.0
506.53,1267.0
506.88,1265.0
507.23,1256.0
507.58,1255.0
507.92,1272.0
508.27,1250.0
508.62,1268.0
508.97,1254.0
509.31,1252.0
509.66,1264.0
510.01,1273.0
510.36,1248.0
510.71,1257.0
511.05,1267.0
511.4,1274.0
511.75,1273.0
512.1,1277.0
512.44,1274.0
512.79,1277.0
513.14,1279.0
513.48,1274.0
513.83,1285.0
514.18,1276.0
514.53,1275.0
514.87,1275.0
515.22,1248.0
515.57,1266.0
515.91,1278.0
516.26,1293.0
516.61,1274.0
516.96,1292.0
517.3,1273.0
517.65,1287.0
518.0,1274.0
518.34,1298.0
518.69,1313.0
519.04,1298.0
519.38,1312.0
519.73,1321.0
520.08,1301.0
520.42,1302.0
520.77,1267.0
521.11,1280.0
521.46,1307.0
521.81,1302.0
522.15,1293.0
522.5,1303.0
522.85,1282.0
523.19,1303.0
523.54,1297.0
523.88,1305.0
524.23,1311.0
524.58,1302.0
524.92,1304.0
525.27,1329.0
525.61,1319.0
525.96,1318.0
526.3,1280.0
526.65,1299.0
527.0,1324.0
527.34,1315.0
527.69,1321.0
528.03,1338.0
528.38,1304.0
528.72,1332.0
529.07,1351.0
529.41,1334.0
529.76,1337.0
530.11,1303.0
530.45,1331.0
530.8,1318.0
531.14,1337.0
531.49,1333.0
531.83,1321.0
532.18,1321.0
532.52,1353.0
532.87,1352.0
533.21,1365.0
533.56,1365.0
533.9,1358.0
534.25,1368.0
534.59,1376.0
534.94,1344.0
535.28,1363.0
535.62,1383.0
535.97,1352.0
536.31,1319.0
536.66,1339.0
537.0,1340.0
537.35,1355.0
537.69,1347.0
538.04,1377.0
538.38,1352.0
538.72,1385.0
539.07,1391.0
539.41,1394.0
539.76,1383.0
540.1,1356.0
540.44,1384.0
540.79,1385.0
541.13,1367.0
541.48,1374.0
541.82,1380.0
542.16,1391.0
542.51,1398.0
542.85,1396.0
543.2,1382.0
543.54,1366.0
543.88,1396.0
544.23,1380.0
544.57,1395.0
544.91,1400.0
545.26,1384.0
545.6,1381.0
545.94,1377.0
546.29,1372.0
546.63,1392.0
546.97,1375.0
547.32,1427.0
547.66,1437.0
548.0,1459.0
548.35,1431.0
548.69,1446.0
549.03,1388.0
549.37,1403.0
549.72,1396.0
550.06,1379.0
550.4,1359.0
550.75,1375.0
551.09,1387.0
551.43,1392.0
551.77,1408.0
552.12,1403.0
552.46,1401.0
552.8,1401.0
553.14,1423.0
553.49,1408.0
553.83,1426.0
554.17,1401.0
554.51,1422.0
554.85,1401.0
555.2,1438.0
555.54,1425.0
555.88,1439.0
556.22,1435.0
556.57,1447.0
556.91,1437.0
557.25,1440.0
557.59,1408.0
557.93,1428.0
558.27,1412.0
558.62,1424.0
558.96,1410.0
559.3,1425.0
559.64,1438.0
559.98,1449.0
560.32,1473.0
560.67,1490.0
561.01,1470.0
561.35,1500.0
561.69,1476.0
562.03,1451.0
562.37,1458.0
562.71,1452.0
563.06,1479.0
563.4,1465.0
563.74,1505.0
564.08,1496.0
564.42,1477.0
564.76,1488.0
565.1,1467.0
565.44,1455.0
565.78,1459.0
566.12,1461.0
566.47,1481.0
566.81,1489.0
567.15,1509.0
567.49,1538.0
567.83,1545.0
568.17,1586.0
568.51,1588.0
568.85,1608.0
569.19,1655.0
569.53,1705.0
569.87,1734.0
570.21,1719.0
570.55,1756.0
570.89,1796.0
571.23,1809.0
571.57,1824.0
571.91,1838.0
572.25,1822.0
572.59,1785.0
572.93,1814.0
573.27,1905.0
573.61,1915.0
573.95,1948.0
574.29,1973.0
574.63,1965.0
574.97,1927.0
575.31,1931.0
575.65,1912.0
575.99,1903.0
576.33,1926.0
576.67,1931.0
577.01,2018.0
577.35,2104.0
577.69,2172.0
578.02,2167.0
578.36,2117.0
578.7,2011.0
579.04,1993.0
579.38,1962.0
579.72,1972.0
580.06,1972.0
580.4,1982.0
580.74,2116.0
581.08,2259.0
581.42,2384.0
581.75,2386.0
582.09,2278.0
582.43,2150.0
582.77,2026.0
583.11,1910.0
583.45,1849.0
583.79,1828.0
584.12,1865.0
584.46,1933.0
584.8,2022.0
585.14,2079.0
585.48,2030.0
585.82,1954.0
586.15,1916.0
586.49,1915.0
586.83,1897.0
587.17,1954.0
587.51,1931.0
587.84,1922.0
588.18,1885.0
588.52,1814.0
588.86,1782.0
589.2,1745.0
589.53,1708.0
589.87,1677.0
590.21,1683.0
590.55,1659.0
590.88,1621.0
591.22,1640.0
591.56,1628.0
591.9,1669.0
592.23,1751.0
592.57,1816.0
592.91,1910.0
593.25,1886.0
593.58,1852.0
593.92,1792.0
594.26,1784.0
594.6,1790.0
594.93,1799.0
595.27,1763.0
595.61,1752.0
595.94,1718.0
596.28,1667.0
596.62,1646.0
596.95,1671.0
597.29,1681.0
597.63,1679.0
597.96,1694.0
598.3,1729.0
598.64,1777.0
598.97,1815.0
599.31,1785.0
599.65,1770.0
599.98,1811.0
600.32,1785.0
600.66,1774.0
600.99,1752.0
601.33,1764.0
601.66,1724.0
602.0,1735.0
602.34,1715.0
602.67,1746.0
603.01,1733.0
603.34,1786.0
603.68,1783.0
604.02,1736.0
604.35,1713.0
604.69,1691.0
605.02,1650.0
605.36,1720.0
605.69,1706.0
606.03,1677.0
606.37,1677.0
606.7,1697.0
607.04,1683.0
607.37,1691.0
607.71,1689.0
608.04,1674.0
608.38,1637.0
608.71,1627.0
609.05,1623.0
609.38,1643.0
609.72,1641.0
610.05,1685.0
610.39,1627.0
610.72,1629.0
611.06,1631.0
611.39,1614.0
611.73,1571.0
612.06,1610.0
612.4,1568.0
612.73,1562.0
613.07,1590.0
613.4,1563.0
613.74,1567.0
614.07,1588.0
614.4,1607.0
614.74,1577.0
615.07,1604.0
615.41,1599.0
615.74,1583.0
616.08,1547.0
616.41,1522.0
616.74,1502.0
617.08,1505.0
617.41,1492.0
617.75,1494.0
618.08,1466.0
618.41,1493.0
618.75,1458.0
619.08,1455.0
619.42,1467.0
619.75,1458.0
620.08,1474.0
620.42,1447.0
620.75,1416.0
621.08,1380.0
621.42,1400.0
621.75,1426.0
622.08,1418.0
622.42,1427.0
622.75,1413.0
623.08,1461.0
623.42,1438.0
623.75,1438.0
624.08,1440.0
624.42,1432.0
624.75,1415.0
625.08,1391.0
625.42,1378.0
625.75,1380.0
626.08,1360.0
626.41,1327.0
626.75,1351.0
627.08,1350.0
627.41,1340.0
627.75,1327.0
628.08,1319.0
628.41,1300.0
628.74,1314.0
629.08,1330.0
629.41,1318.0
629.74,1313.0
630.07,1293.0
630.4,1303.0
630.74,1292.0
631.07,1291.0
631.4,1294.0
631.73,1266.0
632.07,1254.0
632.4,1262.0
632.73,1247.0
633.06,1255.0
633.39,1249.0
633.72,1245.0
634.06,1230.0
634.39,1224.0
634.72,1234.0
635.05,1216.0
635.38,1227.0
635.71,1249.0
636.05,1249.0
636.38,1244.0
636.71,1224.0
637.04,1212.0
637.37,1214.0
637.7,1224.0
638.03,1216.0
638.36,1214.0
638.7,1196.0
639.03,1207.0
639.36,1208.0
639.69,1182.0
640.02,1190.0
640.35,1174.0
640.68,1178.0
641.01,1182.0
641.34,1173.0
641.67,1161.0
642.0,1160.0
642.33,1152.0
642.67,1139.0
643.0,1146.0
643.33,1162.0
643.66,1135.0
643.99,1148.0
644.32,1155.0
644.65,1155.0
644.98,1137.0
645.31,1131.0
645.64,1152.0
645.97,1129.0
646.3,1121.0
646.63,1124.0
646.96,1131.0
647.29,1119.0
647.62,1140.0
647.95,1136.0
648.28,1145.0
648.61,1165.0
648.94,1171.0
649.27,1184.0
649.6,1170.0
649.92,1151.0
650.25,1146.0
650.58,1138.0
650.91,1143.0
651.24,1130.0
651.57,1143.0
651.9,1139.0
652.23,1144.0
652.56,1118.0
652.89,1129.0
653.22,1144.0
653.55,1131.0
653.88,1130.0
654.2,1119.0
654.53,1125.0
654.86,1192.0
655.19,1986.0
655.52,3275.0
655.85,3926.0
656.18,4080.0
656.51,3398.0
656.83,2745.0
657.16,2288.0
657.49,1949.0
657.82,1567.0
658.15,1331.0
658.48,1207.0
658.8,1137.0
659.13,1105.0
659.46,1102.0
659.79,1075.0
660.12,1087.0
660.44,1080.0
660.77,1075.0
661.1,1067.0
661.43,1070.0
661.76,1083.0
662.08,1053.0
662.41,1066.0
662.74,1060.0
663.07,1055.0
663.39,1052.0
663.72,1052.0
664.05,1061.0
664.38,1074.0
664.7,1068.0
665.03,1060.0
665.36,1074.0
665.69,1036.0
666.01,1058.0
666.34,1037.0
666.67,1051.0
666.99,1027.0
667.32,1044.0
667.65,1068.0
667.97,1050.0
668.3,1019.0
668.63,1037.0
668.95,1039.0
669.28,1037.0
669.61,1044.0
669.93,1040.0
670.26,1044.0
670.59,1041.0
670.91,1041.0
671.24,1059.0
671.57,1071.0
671.89,1073.0
672.22,1076.0
672.55,1082.0
672.87,1048.0
673.2,1048.0
673.52,1037.0
673.85,1028.0
674.18,1037.0
674.5,1013.0
674.83,1023.0
675.15,1023.0
675.48,1012.0
675.81,1016.0
676.13,1000.0
676.46,1001.0
676.78,1000.0
677.11,997.0
677.43,1014.0
677.76,1027.0
678.08,1024.0
678.41,1015.0
678.74,993.0
679.06,1011.0
679.39,998.0
679.71,1020.0
680.04,1037.0
680.36,1009.0
680.69,1014.0
681.01,986.0
681.34,984.0
681.66,1002.0
681.99,985.0
682.31,974.0
682.63,975.0
682.96,943.0
683.28,959.0
683.61,963.0
683.93,946.0
684.26,969.0
684.58,1003.0
684.91,996.0
685.23,1016.0
685.56,1026.0
685.88,1016.0
686.2,990.0
686.53,984.0
686.85,989.0
687.18,983.0
687.5,986.0
687.82,978.0
688.15,963.0
688.47,965.0
688.8,964.0
689.12,931.0
689.44,924.0
689.77,952.0
690.09,939.0
690.41,918.0
690.74,929.0
691.06,937.0
691.38,944.0
691.71,931.0
692.03,935.0
692.35,916.0
692.68,933.0
693.0,929.0
693.32,927.0
693.65,919.0
693.97,906.0
694.29,888.0
694.62,891.0
694.94,898.0
695.26,876.0
695.58,878.0
695.91,873.0
696.23,859.0
696.55,862.0
696.87,879.0
697.2,897.0
697.52,907.0
697.84,893.0
698.16,867.0
698.49,870.0
698.81,861.0
699.13,867.0
699.45,859.0
699.78,866.0
700.1,838.0
700.42,826.0
700.74,825.0
701.06,824.0
701.39,805.0
701.71,813.0
702.03,832.0
702.35,839.0
702.67,836.0
702.99,809.0
703.32,822.0
703.64,828.0
703.96,806.0
704.28,802.0
704.6,812.0
704.92,812.0
705.24,782.0
705.57,797.0
705.89,803.0
706.21,807.0
706.53,831.0
706.85,837.0
707.17,847.0
707.49,839.0
707.81,847.0
708.13,831.0
708.45,822.0
708.78,827.0
709.1,829.0
709.42,811.0
709.74,822.0
710.06,825.0
710.38,800.0
710.7,796.0
711.02,811.0
711.34,790.0
711.66,784.0
711.98,779.0
712.3,777.0
712.62,785.0
712.94,775.0
713.26,780.0
713.58,783.0
713.9,785.0
714.22,780.0
714.54,780.0
714.86,787.0
715.18,790.0
715.5,767.0
715.82,769.0
716.14,747.0
716.46,758.0
716.78,750.0
717.1,741.0
717.42,755.0
717.74,755.0
718.06,732.0
718.38,741.0
718.69,762.0
719.01,751.0
719.33,760.0
719.65,733.0
719.97,741.0
720.29,734.0
720.61,739.0
720.93,743.0
721.25,734.0
721.56,732.0
721.88,731.0
722.2,719.0
722.52,712.0
722.84,712.0
723.16,720.0
723.48,719.0
723.79,710.0
724.11,703.0
724.43,685.0
724.75,709.0
725.07,715.0
725.39,715.0
725.7,705.0
726.02,726.0
726.34,700.0
726.66,714.0
726.98,703.0
727.29,702.0
727.61,697.0
727.93,694.0
728.25,700.0
728.56,694.0
728.88,697.0
729.2,696.0
729.52,696.0
729.84,696.0
730.15,717.0
730.47,707.0
730.79,696.0
731.1,712.0
731.42,717.0
731.74,715.0
732.06,699.0
732.37,702.0
732.69,689.0
733.01,685.0
733.32,678.0
733.64,672.0
733.96,692.0
734.27,689.0
734.59,677.0
734.91,679.0
735.22,687.0
735.54,671.0
735.86,678.0
736.17,676.0
736.49,671.0
736.81,685.0
737.12,671.0
737.44,675.0
737.75,653.0
738.07,639.0
738.39,640.0
738.7,640.0
739.02,663.0
739.33,661.0
739.65,651.0
739.97,643.0
740.28,633.0
740.6,616.0
740.91,601.0
741.23,598.0
741.55,599.0
741.86,601.0
742.18,590.0
742.49,584.0
742.81,606.0
743.12,585.0
743.44,580.0
743.75,574.0
744.07,588.0
744.38,579.0
744.7,574.0
745.01,573.0
745.33,570.0
745.64,571.0
745.96,559.0
746.27,550.0
746.59,563.0
746.9,557.0
747.22,559.0
747.53,568.0
747.85,565.0
748.16,540.0
748.47,548.0
748.79,551.0
749.1,543.0
749.42,546.0
749.73,556.0
750.05,560.0
750.36,569.0
750.67,555.0
750.99,554.0
751.3,555.0
751.62,546.0
751.93,548.0
752.24,547.0
752.56,547.0
752.87,546.0
753.19,549.0
753.5,554.0
753.81,557.0
754.13,557.0
754.44,554.0
754.75,545.0
755.07,540.0
755.38,549.0
755.69,533.0
756.01,555.0
756.32,554.0
756.63,578.0
756.95,562.0
757.26,580.0
757.57,589.0
757.88,588.0
758.2,572.0
758.51,560.0
758.82,556.0
759.14,563.0
759.45,565.0
759.76,555.0
760.07,562.0
760.39,557.0
760.7,557.0
761.01,561.0
761.32,542.0
761.63,551.0
761.95,525.0
762.26,525.0
762.57,522.0
762.88,518.0
763.2,529.0
763.51,532.0
763.82,537.0
764.13,541.0
764.44,530.0
764.75,533.0
765.07,552.0
765.38,538.0
765.69,528.0
766.0,510.0
766.31,501.0
766.62,503.0
766.94,493.0
767.25,471.0
767.56,492.0
767.87,494.0
768.18,489.0
768.49,508.0
768.8,515.0
769.11,512.0
769.42,496.0
769.74,491.0
770.05,495.0
770.36,482.0
770.67,479.0
770.98,477.0
771.29,487.0
771.6,477.0
771.91,479.0
772.22,456.0
772.53,460.0
772.84,467.0
773.15,459.0
773.46,461.0
773.77,452.0
774.08,444.0
774.39,456.0
774.7,446.0
775.01,429.0
775.32,434.0
775.63,415.0
775.94,434.0
776.25,427.0
776.56,435.0
776.87,425.0
777.18,408.0
777.49,420.0
777.8,416.0
778.11,419.0
778.42,424.0
778.73,425.0
779.04,425.0
779.35,429.0
779.66,416.0
779.97,417.0
780.28,411.0
780.58,415.0
780.89,422.0
781.2,421.0
781.51,432.0
781.82,416.0
782.13,427.0
782.44,412.0
782.75,412.0
783.06,410.0
783.36,404.0
783.67,406.0
783.98,400.0
784.29,394.0
784.6,387.0
784.91,388.0
785.21,396.0
785.52,396.0
785.83,390.0
786.14,384.0
786.45,384.0
786.76,379.0
787.06,374.0
787.37,385.0
787.68,374.0
787.99,380.0
788.29,391.0
788.6,389.0
788.91,376.0
789.22,374.0
789.52,369.0
789.83,364.0
790.14,353.0
790.45,358.0
790.75,360.0
791.06,364.0
791.37,364.0
791.68,353.0
791.98,358.0
792.29,347.0
792.6,350.0
792.9,350.0
793.21,347.0
793.52,346.0
793.82,359.0
794.13,362.0
794.44,358.0
794.74,357.0
795.05,359.0
795.36,354.0
795.66,342.0
795.97,328.0
796.28,322.0
796.58,334.0
796.89,322.0
797.2,317.0
797.5,320.0
797.81,323.0
798.11,324.0
798.42,322.0
798.73,324.0
799.03,313.0
799.34,315.0
799.64,312.0
799.95,309.0
800.25,303.0
800.56,309.0
800.87,313.0
801.17,316.0
801.48,301.0
801.78,301.0
802.09,299.0
802.39,295.0
802.7,286.0
803.0,295.0
803.31,305.0
803.61,295.0
803.92,290.0
804.22,284.0
804.53,298.0
804.83,289.0
805.14,290.0
805.44,301.0
805.75,287.0
806.05,296.0
806.36,296.0
806.66,292.0
806.97,280.0
807.27,291.0
807.57,283.0
807.88,289.0
808.18,276.0
808.49,284.0
808.79,275.0
809.1,280.0
809.4,269.0
809.7,274.0
810.01,261.0
810.31,261.0
810.62,272.0
810.92,272.0
811.22,276.0
811.53,266.0
811.83,265.0
812.13,255.0
812.44,258.0
812.74,247.0
813.04,260.0
813.35,256.0
813.65,264.0
813.95,262.0
814.26,261.0
814.56,257.0
814.86,241.0
815.17,251.0
815.47,247.0
815.77,246.0
816.08,255.0
816.38,249.0
816.68,241.0
816.98,246.0
817.29,245.0
817.59,253.0
817.89,247.0
818.19,237.0
818.5,243.0
818.8,241.0
819.1,235.0
819.4,236.0
819.71,236.0
820.01,232.0
820.31,230.0
820.61,239.0
820.91,234.0
821.22,239.0
821.52,234.0
821.82,239.0
822.12,224.0
822.42,232.0
822.72,230.0
823.03,227.0
823.33,233.0
823.63,233.0
823.93,221.0
824.23,216.0
824.53,223.0
824.83,212.0
825.14,227.0
825.44,217.0
825.74,218.0
826.04,225.0
826.34,211.0
826.64,216.0
826.94,220.0
827.24,223.0
827.54,227.0
827.84,218.0
828.14,224.0
828.44,216.0
828.75,215.0
829.05,212.0
829.35,209.0
829.65,209.0
829.95,207.0
830.25,200.0
830.55,208.0
830.85,195.0
831.15,199.0
831.45,204.0
831.75,208.0
832.05,196.0
832.35,201.0
832.65,195.0
832.95,200.0
833.25,193.0
833.55,206.0
833.85,193.0
834.15,199.0
834.45,201.0
834.74,189.0
835.04,193.0
835.34,194.0
835.64,192.0
835.94,193.0
836.24,196.0
836.54,194.0
836.84,186.0
837.14,194.0
837.44,189.0
837.74,191.0
838.04,186.0
838.33,194.0
838.63,190.0
838.93,185.0
839.23,191.0
839.53,189.0
839.83,181.0
840.13,182.0
840.42,175.0
840.72,181.0
841.02,187.0
841.32,185.0
841.62,181.0
841.91,183.0
842.21,178.0
842.51,179.0
842.81,177.0
843.11,179.0
843.4,176.0
843.7,175.0
844.0,176.0
844.3,175.0
844.6,178.0
844.89,175.0
845.19,168.0
845.49,173.0
845.79,170.0
846.08,168.0
846.38,172.0
846.68,168.0
846.97,172.0
847.27,177.0
847.57,168.0
847.87,163.0
848.16,167.0
848.46,171.0
848.76,169.0
849.05,161.0
849.35,170.0
849.65,168.0
849.94,163.0
850.24,162.0
850.54,165.0
850.83,159.0
851.13,153.0
851.42,157.0
851.72,157.0
852.02,165.0
852.31,162.0
852.61,165.0
852.91,160.0
853.2,165.0
853.5,162.0
853.79,161.0
854.09,157.0
854.38,158.0
854.68,159.0
854.98,156.0
855.27,155.0
855.57,158.0
855.86,162.0
856.16,155.0
856.45,159.0
856.75,156.0
857.04,153.0
857.34,156.0
857.63,150.0
857.93,152.0
858.22,151.0
858.52,154.0
858.81,148.0
859.11,150.0
859.4,146.0
859.7,143.0
859.99,145.0
860.29,147.0
860.58,145.0
860.88,142.0
861.17,148.0
861.47,138.0
861.76,146.0
862.05,139.0
862.35,142.0
862.64,139.0
862.94,145.0
863.23,143.0
863.53,137.0
863.82,141.0
864.11,141.0
864.41,142.0
864.7,144.0
864.99,133.0
865.29,138.0
865.58,136.0
865.88,138.0
866.17,133.0
866.46,140.0
866.76,131.0
867.05,136.0
867.34,130.0
867.64,136.0
867.93,137.0
868.22,139.0
868.51,132.0
868.81,136.0
869.1,133.0
869.39,133.0
869.69,131.0
869.98,126.0
870.27,123.0
870.56,129.0
870.86,125.0
871.15,131.0
871.44,127.0
871.73,126.0
872.03,134.0
872.32,130.0
872.61,129.0
872.9,121.0
873.2,128.0
873.49,128.0
873.78,127.0
874.07,123.0
874.36,123.0
874.66,122.0
874.95,127.0
875.24,125.0
875.53,118.0
875.82,127.0
