Wavelength,Intensity
350.34,64.0
350.7,63.0
351.07,64.0
351.43,67.0
351.8,69.0
352.16,65.0
352.53,66.0
352.89,67.0
353.25,67.0
353.62,67.0
353.98,68.0
354.35,68.0
354.71,73.0
355.08,69.0
355.44,69.0
355.8,72.0
356.17,68.0
356.53,69.0
356.9,76.0
357.26,73.0
357.63,80.0
357.99,77.0
358.35,82.0
358.72,82.0
359.08,80.0
359.44,88.0
359.81,91.0
360.17,96.0
360.54,99.0
360.9,101.0
361.26,111.0
361.63,123.0
361.99,126.0
362.35,136.0
362.72,166.0
363.08,198.0
363.44,291.0
363.81,810.0
364.17,3151.0
364.53,4095.0
364.9,4095.0
365.26,4095.0
365.62,4095.0
365.99,4095.0
366.35,2969.0
366.71,1189.0
367.08,587.0
367.44,320.0
367.8,203.0
368.17,155.0
368.53,137.0
368.89,123.0
369.25,120.0
369.62,119.0
369.98,111.0
370.34,109.0
370.71,102.0
371.07,103.0
371.43,95.0
371.79,99.0
372.16,96.0
372.52,96.0
372.88,92.0
373.24,88.0
373.61,87.0
373.97,90.0
374.33,95.0
374.69,90.0
375.05,94.0
375.42,88.0
375.78,92.0
376.14,90.0
376.5,90.0
376.87,93.0
377.23,92.0
377.59,93.0
377.95,91.0
378.31,92.0
378.68,92.0
379.04,87.0
379.4,96.0
379.76,97.0
380.12,93.0
380.48,97.0
380.85,103.0
381.21,104.0
381.57,96.0
381.93,100.0
382.29,105.0
382.65,101.0
383.02,99.0
383.38,93.0
383.74,100.0
384.1,101.0
384.46,106.0
384.82,108.0
385.18,112.0
385.55,101.0
385.91,102.0
386.27,98.0
386.63,99.0
386.99,106.0
387.35,103.0
387.71,103.0
388.07,108.0
388.43,107.0
388.8,103.0
389.16,111.0
389.52,104.0
389.88,106.0
390.24,112.0
390.6,107.0
390.96,102.0
391.32,111.0
391.68,112.0
392.04,109.0
392.4,111.0
392.76,107.0
393.12,114.0
393.48,111.0
393.84,104.0
394.2,110.0
394.57,109.0
394.93,114.0
395.29,105.0
395.65,113.0
396.01,109.0
396.37,112.0
396.73,109.0
397.09,113.0
397.45,115.0
397.81,129.0
398.17,121.0
398.53,125.0
398.89,126.0
399.25,115.0
399.61,122.0
399.97,125.0
400.33,122.0
400.69,129.0
401.04,144.0
401.4,145.0
401.76,152.0
402.12,151.0
402.48,176.0
402.84,207.0
403.2,298.0
403.56,1287.0
403.92,4095.0
404.28,4095.0
404.64,4095.0
405.0,4095.0
405.36,4095.0
405.72,3127.0
406.08,732.0
406.44,327.0
406.79,375.0
407.15,622.0
407.51,673.0
407.87,749.0
408.23,533.0
408.59,360.0
408.95,227.0
409.31,164.0
409.67,149.0
410.03,136.0
410.38,122.0
410.74,121.0
411.1,119.0
411.46,115.0
411.82,112.0
412.18,103.0
412.54,106.0
412.89,113.0
413.25,112.0
413.61,111.0
413.97,106.0
414.33,102.0
414.69,101.0
415.04,103.0
415.4,104.0
415.76,104.0
416.12,101.0
416.48,95.0
416.83,102.0
417.19,97.0
417.55,99.0
417.91,95.0
418.27,101.0
418.62,97.0
418.98,93.0
419.34,95.0
419.7,96.0
420.06,98.0
420.41,99.0
420.77,98.0
421.13,96.0
421.49,98.0
421.84,99.0
422.2,96.0
422.56,90.0
422.92,91.0
423.27,97.0
423.63,93.0
423.99,95.0
424.34,88.0
424.7,91.0
425.06,93.0
425.42,93.0
425.77,89.0
426.13,101.0
426.49,101.0
426.84,104.0
427.2,103.0
427.56,108.0
427.92,95.0
428.27,105.0
428.63,109.0
428.99,125.0
429.34,135.0
429.7,137.0
430.06,135.0
430.41,137.0
430.77,142.0
431.13,151.0
431.48,147.0
431.84,162.0
432.2,164.0
432.55,180.0
432.91,201.0
433.26,229.0
433.62,295.0
433.98,415.0
434.33,597.0
434.69,2099.0
435.05,4095.0
435.4,4095.0
435.76,4095.0
436.11,4095.0
436.47,4095.0
436.83,4095.0
437.18,4095.0
437.54,989.0
437.89,461.0
438.25,315.0
438.6,254.0
438.96,195.0
439.32,173.0
439.67,158.0
440.03,144.0
440.38,142.0
440.74,140.0
441.09,133.0
441.45,118.0
441.8,115.0
442.16,111.0
442.52,106.0
442.87,107.0
443.23,93.0
443.58,96.0
443.94,94.0
444.29,87.0
444.65,93.0
445.0,95.0
445.36,80.0
445.71,87.0
446.07,85.0
446.42,87.0
446.78,82.0
447.13,78.0
447.49,84.0
447.84,84.0
448.2,79.0
448.55,76.0
448.9,77.0
449.26,78.0
449.61,74.0
449.97,76.0
450.32,78.0
450.68,78.0
451.03,81.0
451.39,82.0
451.74,84.0
452.09,75.0
452.45,78.0
452.8,78.0
453.16,73.0
453.51,75.0
453.87,78.0
454.22,81.0
454.57,75.0
454.93,76.0
455.28,82.0
455.64,75.0
455.99,75.0
456.34,75.0
456.7,76.0
457.05,76.0
457.4,76.0
457.76,76.0
458.11,71.0
458.46,71.0
458.82,75.0
459.17,77.0
459.53,73.0
459.88,76.0
460.23,70.0
460.59,75.0
460.94,77.0
461.29,73.0
461.65,73.0
462.0,71.0
462.35,71.0
462.7,77.0
463.06,71.0
463.41,70.0
463.76,72.0
464.12,72.0
464.47,77.0
464.82,71.0
465.18,75.0
465.53,72.0
465.88,73.0
466.23,75.0
466.59,74.0
466.94,77.0
467.29,72.0
467.64,75.0
468.0,71.0
468.35,78.0
468.7,72.0
469.05,73.0
469.41,72.0
469.76,74.0
470.11,74.0
470.46,73.0
470.82,74.0
471.17,72.0
471.52,67.0
471.87,73.0
472.22,71.0
472.58,72.0
472.93,76.0
473.28,71.0
473.63,74.0
473.98,73.0
474.34,72.0
474.69,74.0
475.04,74.0
475.39,73.0
475.74,77.0
476.09,70.0
476.45,70.0
476.8,73.0
477.15,79.0
477.5,70.0
477.85,71.0
478.2,75.0
478.55,79.0
478.91,74.0
479.26,70.0
479.61,75.0
479.96,71.0
480.31,71.0
480.66,77.0
481.01,73.0
481.36,75.0
481.71,71.0
482.07,73.0
482.42,71.0
482.77,67.0
483.12,73.0
483.47,70.0
483.82,66.0
484.17,74.0
484.52,75.0
484.87,72.0
485.22,71.0
485.57,70.0
485.92,72.0
486.27,71.0
486.62,76.0
486.97,76.0
487.32,69.0
487.68,73.0
488.03,69.0
488.38,72.0
488.73,68.0
489.08,68.0
489.43,73.0
489.78,70.0
490.13,71.0
490.48,75.0
490.83,103.0
491.18,128.0
491.53,131.0
491.88,123.0
492.23,107.0
492.58,92.0
492.92,77.0
493.27,74.0
493.62,77.0
493.97,74.0
494.32,73.0
494.67,67.0
495.02,73.0
495.37,71.0
495.72,70.0
496.07,65.0
496.42,71.0
496.77,72.0
497.12,73.0
497.47,75.0
497.82,69.0
498.17,71.0
498.51,72.0
498.86,67.0
499.21,70.0
499.56,67.0
499.91,67.0
500.26,67.0
500.61,71.0
500.96,70.0
501.31,69.0
501.65,70.0
502.0,66.0
502.35,67.0
502.7,72.0
503.05,74.0
503.4,66.0
503.75,71.0
504.09,71.0
504.44,70.0
504.79,68.0
505.14,68.0
505.49,66.0
505.83,64.0
506.18,70.0
506.53,70.0
506.88,73.0
507.23,66.0
507.58,71.0
507.92,70.0
508.27,67.0
508.62,66.0
508.97,72.0
509.31,70.0
509.66,69.0
510.01,73.0
510.36,69.0
510.71,71.0
511.05,67.0
511.4,69.0
511.75,71.0
512.1,65.0
512.44,70.0
512.79,65.0
513.14,70.0
513.48,65.0
513.83,71.0
514.18,67.0
514.53,64.0
514.87,71.0
515.22,66.0
515.57,63.0
515.91,65.0
516.26,70.0
516.61,62.0
516.96,66.0
517.3,63.0
517.65,66.0
518.0,66.0
518.34,68.0
518.69,68.0
519.04,69.0
519.38,70.0
519.73,73.0
520.08,71.0
520.42,75.0
520.77,74.0
521.11,69.0
521.46,74.0
521.81,71.0
522.15,69.0
522.5,70.0
522.85,67.0
523.19,71.0
523.54,75.0
523.88,73.0
524.23,69.0
524.58,72.0
524.92,71.0
525.27,77.0
525.61,72.0
525.96,74.0
526.3,66.0
526.65,71.0
527.0,67.0
527.34,68.0
527.69,69.0
528.03,69.0
528.38,67.0
528.72,73.0
529.07,69.0
529.41,68.0
529.76,74.0
530.11,70.0
530.45,70.0
530.8,76.0
531.14,74.0
531.49,71.0
531.83,73.0
532.18,71.0
532.52,70.0
532.87,72.0
533.21,68.0
533.56,71.0
533.9,76.0
534.25,73.0
534.59,75.0
534.94,79.0
535.28,77.0
535.62,73.0
535.97,76.0
536.31,80.0
536.66,78.0
537.0,78.0
537.35,82.0
537.69,85.0
538.04,82.0
538.38,88.0
538.72,87.0
539.07,95.0
539.41,98.0
539.76,102.0
540.1,119.0
540.44,125.0
540.79,138.0
541.13,143.0
541.48,144.0
541.82,143.0
542.16,152.0
542.51,157.0
542.85,169.0
543.2,184.0
543.54,206.0
543.88,257.0
544.23,313.0
544.57,477.0
544.91,1898.0
545.26,4095.0
545.6,4095.0
545.94,4095.0
546.29,4095.0
546.63,4095.0
546.97,4095.0
547.32,4095.0
547.66,4095.0
548.0,3973.0
548.35,941.0
548.69,502.0
549.03,337.0
549.37,256.0
549.72,207.0
550.06,175.0
550.4,148.0
550.75,145.0
551.09,134.0
551.43,127.0
551.77,115.0
552.12,113.0
552.46,104.0
552.8,101.0
553.14,93.0
553.49,94.0
553.83,93.0
554.17,89.0
554.51,84.0
554.85,93.0
555.2,84.0
555.54,82.0
555.88,80.0
556.22,81.0
556.57,76.0
556.91,75.0
557.25,81.0
557.59,73.0
557.93,71.0
558.27,73.0
558.62,67.0
558.96,74.0
559.3,72.0
559.64,72.0
559.98,73.0
560.32,74.0
560.67,75.0
561.01,73.0
561.35,67.0
561.69,69.0
562.03,68.0
562.37,71.0
562.71,67.0
563.06,73.0
563.4,69.0
563.74,69.0
564.08,69.0
564.42,63.0
564.76,68.0
565.1,69.0
565.44,70.0
565.78,68.0
566.12,68.0
566.47,67.0
566.81,70.0
567.15,71.0
567.49,73.0
567.83,70.0
568.17,69.0
568.51,68.0
568.85,73.0
569.19,69.0
569.53,72.0
569.87,74.0
570.21,72.0
570.55,73.0
570.89,75.0
571.23,77.0
571.57,81.0
571.91,76.0
572.25,79.0
572.59,79.0
572.93,76.0
573.27,72.0
573.61,76.0
573.95,85.0
574.29,87.0
574.63,91.0
574.97,92.0
575.31,99.0
575.65,150.0
575.99,941.0
576.33,2817.0
576.67,3849.0
577.01,4095.0
577.35,3573.0
577.69,2525.0
578.02,2326.0
578.36,3581.0
578.7,4095.0
579.04,4095.0
579.38,4095.0
579.72,3059.0
580.06,2046.0
580.4,1365.0
580.74,728.0
581.08,367.0
581.42,203.0
581.75,141.0
582.09,114.0
582.43,106.0
582.77,96.0
583.11,86.0
583.45,85.0
583.79,78.0
584.12,78.0
584.46,75.0
584.8,75.0
585.14,75.0
585.48,72.0
585.82,72.0
586.15,74.0
586.49,72.0
586.83,77.0
587.17,70.0
587.51,70.0
587.84,74.0
588.18,68.0
588.52,69.0
588.86,71.0
589.2,69.0
589.53,67.0
589.87,65.0
590.21,64.0
590.55,66.0
590.88,68.0
591.22,68.0
591.56,65.0
591.9,67.0
592.23,66.0
592.57,69.0
592.91,69.0
593.25,67.0
593.58,58.0
593.92,62.0
594.26,61.0
594.6,62.0
594.93,64.0
595.27,66.0
595.61,63.0
595.94,65.0
596.28,64.0
596.62,62.0
596.95,60.0
597.29,65.0
597.63,69.0
597.96,68.0
598.3,63.0
598.64,63.0
598.97,65.0
599.31,60.0
599.65,62.0
599.98,62.0
600.32,67.0
600.66,66.0
600.99,66.0
601.33,65.0
601.66,63.0
602.0,63.0
602.34,64.0
602.67,64.0
603.01,64.0
603.34,67.0
603.68,65.0
604.02,61.0
604.35,63.0
604.69,66.0
605.02,63.0
605.36,62.0
605.69,67.0
606.03,59.0
606.37,67.0
606.7,63.0
607.04,63.0
607.37,68.0
607.71,67.0
608.04,64.0
608.38,66.0
608.71,62.0
609.05,63.0
609.38,62.0
609.72,59.0
610.05,63.0
610.39,65.0
610.72,64.0
611.06,63.0
611.39,66.0
611.73,66.0
612.06,70.0
612.4,68.0
612.73,63.0
613.07,67.0
613.4,67.0
613.74,64.0
614.07,59.0
614.4,62.0
614.74,64.0
615.07,59.0
615.41,63.0
615.74,70.0
616.08,58.0
616.41,65.0
616.74,61.0
617.08,65.0
617.41,62.0
617.75,63.0
618.08,63.0
618.41,62.0
618.75,62.0
619.08,62.0
619.42,61.0
619.75,61.0
620.08,57.0
620.42,65.0
620.75,64.0
621.08,62.0
621.42,63.0
621.75,63.0
622.08,62.0
622.42,58.0
622.75,62.0
623.08,64.0
623.42,68.0
623.75,60.0
624.08,63.0
624.42,65.0
624.75,64.0
625.08,59.0
625.42,60.0
625.75,62.0
626.08,64.0
626.41,62.0
626.75,61.0
627.08,59.0
627.41,62.0
627.75,64.0
628.08,60.0
628.41,59.0
628.74,60.0
629.08,63.0
629.41,63.0
629.74,64.0
630.07,58.0
630.4,62.0
630.74,63.0
631.07,65.0
631.4,63.0
631.73,60.0
632.07,62.0
632.4,60.0
632.73,61.0
633.06,60.0
633.39,65.0
633.72,56.0
634.06,57.0
634.39,62.0
634.72,62.0
635.05,65.0
635.38,64.0
635.71,59.0
636.05,59.0
636.38,68.0
636.71,66.0
637.04,64.0
637.37,61.0
637.7,59.0
638.03,64.0
638.36,59.0
638.7,64.0
639.03,62.0
639.36,66.0
639.69,59.0
640.02,59.0
640.35,60.0
640.68,60.0
641.01,65.0
641.34,58.0
641.67,61.0
642.0,63.0
642.33,57.0
642.67,59.0
643.0,59.0
643.33,60.0
643.66,63.0
643.99,66.0
644.32,64.0
644.65,66.0
644.98,61.0
645.31,63.0
645.64,57.0
645.97,60.0
646.3,59.0
646.63,62.0
646.96,65.0
647.29,60.0
647.62,62.0
647.95,60.0
648.28,62.0
648.61,60.0
648.94,57.0
649.27,59.0
649.6,60.0
649.92,62.0
650.25,65.0
650.58,64.0
650.91,63.0
651.24,65.0
651.57,61.0
651.9,59.0
652.23,56.0
652.56,57.0
652.89,65.0
653.22,64.0
653.55,67.0
653.88,66.0
654.2,61.0
654.53,57.0
654.86,62.0
655.19,63.0
655.52,63.0
655.85,64.0
656.18,56.0
656.51,60.0
656.83,63.0
657.16,60.0
657.49,59.0
657.82,61.0
658.15,61.0
658.48,58.0
658.8,59.0
659.13,61.0
659.46,62.0
659.79,57.0
660.12,66.0
660.44,60.0
660.77,60.0
661.1,63.0
661.43,59.0
661.76,64.0
662.08,61.0
662.41,60.0
662.74,67.0
663.07,62.0
663.39,62.0
663.72,63.0
664.05,63.0
664.38,60.0
664.7,60.0
665.03,57.0
665.36,60.0
665.69,65.0
666.01,57.0
666.34,61.0
666.67,60.0
666.99,60.0
667.32,63.0
667.65,62.0
667.97,61.0
668.3,63.0
668.63,61.0
668.95,63.0
669.28,65.0
669.61,59.0
669.93,58.0
670.26,59.0
670.59,62.0
670.91,56.0
671.24,60.0
671.57,62.0
671.89,68.0
672.22,63.0
672.55,60.0
672.87,62.0
673.2,60.0
673.52,57.0
673.85,58.0
674.18,62.0
674.5,63.0
674.83,63.0
675.15,64.0
675.48,61.0
675.81,60.0
676.13,61.0
676.46,62.0
676.78,60.0
677.11,62.0
677.43,62.0
677.76,63.0
678.08,60.0
678.41,65.0
678.74,58.0
679.06,58.0
679.39,62.0
679.71,58.0
680.04,60.0
680.36,62.0
680.69,61.0
681.01,62.0
681.34,60.0
681.66,65.0
681.99,58.0
682.31,60.0
682.63,62.0
682.96,56.0
683.28,60.0
683.61,58.0
683.93,63.0
684.26,63.0
684.58,59.0
684.91,59.0
685.23,55.0
685.56,61.0
685.88,58.0
686.2,60.0
686.53,59.0
686.85,65.0
687.18,61.0
687.5,60.0
687.82,60.0
688.15,60.0
688.47,63.0
688.8,60.0
689.12,65.0
689.44,63.0
689.77,71.0
690.09,65.0
690.41,69.0
690.74,76.0
691.06,72.0
691.38,66.0
691.71,67.0
692.03,68.0
692.35,64.0
692.68,65.0
693.0,66.0
693.32,60.0
693.65,60.0
693.97,58.0
694.29,59.0
694.62,60.0
694.94,60.0
695.26,70.0
695.58,113.0
695.91,221.0
696.23,295.0
696.55,358.0
696.87,318.0
697.2,262.0
697.52,209.0
697.84,177.0
698.16,146.0
698.49,113.0
698.81,85.0
699.13,73.0
699.45,67.0
699.78,60.0
700.1,62.0
700.42,58.0
700.74,62.0
701.06,62.0
701.39,60.0
701.71,64.0
702.03,53.0
702.35,60.0
702.67,59.0
702.99,58.0
703.32,58.0
703.64,59.0
703.96,62.0
704.28,62.0
704.6,64.0
704.92,63.0
705.24,58.0
705.57,60.0
705.89,76.0
706.21,97.0
706.53,116.0
706.85,119.0
707.17,114.0
707.49,100.0
707.81,91.0
708.13,81.0
708.45,78.0
708.78,73.0
709.1,68.0
709.42,63.0
709.74,63.0
710.06,66.0
710.38,63.0
710.7,57.0
711.02,61.0
711.34,59.0
711.66,62.0
711.98,63.0
712.3,59.0
712.62,62.0
712.94,56.0
713.26,61.0
713.58,67.0
713.9,62.0
714.22,65.0
714.54,66.0
714.86,74.0
715.18,70.0
715.5,63.0
715.82,63.0
716.14,65.0
716.46,63.0
716.78,60.0
717.1,61.0
717.42,60.0
717.74,61.0
718.06,63.0
718.38,59.0
718.69,61.0
719.01,60.0
719.33,60.0
719.65,60.0
719.97,58.0
720.29,61.0
720.61,55.0
720.93,58.0
721.25,60.0
721.56,56.0
721.88,62.0
722.2,55.0
722.52,60.0
722.84,63.0
723.16,61.0
723.48,59.0
723.79,57.0
724.11,56.0
724.43,62.0
724.75,56.0
725.07,59.0
725.39,63.0
725.7,58.0
726.02,61.0
726.34,68.0
726.66,93.0
726.98,113.0
727.29,126.0
727.61,114.0
727.93,98.0
728.25,90.0
728.56,83.0
728.88,72.0
729.2,72.0
729.52,66.0
729.84,64.0
730.15,57.0
730.47,55.0
730.79,56.0
731.1,62.0
731.42,62.0
731.74,61.0
732.06,63.0
732.37,57.0
732.69,63.0
733.01,60.0
733.32,59.0
733.64,61.0
733.96,59.0
734.27,60.0
734.59,60.0
734.91,58.0
735.22,61.0
735.54,57.0
735.86,63.0
736.17,55.0
736.49,60.0
736.81,63.0
737.12,60.0
737.44,73.0
737.75,109.0
738.07,135.0
738.39,157.0
738.7,146.0
739.02,126.0
739.33,107.0
739.65,95.0
739.97,88.0
740.28,75.0
740.6,74.0
740.91,65.0
741.23,62.0
741.55,58.0
741.86,58.0
742.18,59.0
742.49,59.0
742.81,66.0
743.12,61.0
743.44,61.0
743.75,65.0
744.07,59.0
744.38,58.0
744.7,60.0
745.01,63.0
745.33,61.0
745.64,61.0
745.96,57.0
746.27,56.0
746.59,59.0
746.9,60.0
747.22,59.0
747.53,64.0
747.85,64.0
748.16,63.0
748.47,61.0
748.79,64.0
749.1,66.0
749.42,88.0
749.73,169.0
750.05,238.0
750.36,285.0
750.67,289.0
750.99,256.0
751.3,229.0
751.62,204.0
751.93,166.0
752.24,146.0
752.56,117.0
752.87,97.0
753.19,81.0
753.5,76.0
753.81,72.0
754.13,69.0
754.44,62.0
754.75,64.0
755.07,58.0
755.38,62.0
755.69,57.0
756.01,62.0
756.32,59.0
756.63,60.0
756.95,60.0
757.26,63.0
757.57,61.0
757.88,63.0
758.2,59.0
758.51,62.0
758.82,63.0
759.14,62.0
759.45,62.0
759.76,62.0
760.07,69.0
760.39,93.0
760.7,115.0
761.01,131.0
761.32,132.0
761.63,112.0
761.95,102.0
762.26,97.0
762.57,158.0
762.88,314.0
763.2,461.0
763.51,519.0
763.82,460.0
764.13,320.0
764.44,231.0
764.75,181.0
765.07,158.0
765.38,146.0
765.69,126.0
766.0,99.0
766.31,81.0
766.62,70.0
766.94,68.0
767.25,63.0
767.56,63.0
767.87,58.0
768.18,60.0
768.49,65.0
768.8,61.0
769.11,62.0
769.42,63.0
769.74,60.0
770.05,63.0
770.36,56.0
770.67,63.0
770.98,62.0
771.29,72.0
771.6,148.0
771.91,228.0
772.22,282.0
772.53,290.0
772.84,226.0
773.15,168.0
773.46,141.0
773.77,122.0
774.08,111.0
774.39,103.0
774.7,94.0
775.01,76.0
775.32,66.0
775.63,67.0
775.94,62.0
776.25,67.0
776.56,60.0
776.87,60.0
777.18,59.0
777.49,62.0
777.8,61.0
778.11,60.0
778.42,59.0
778.73,60.0
779.04,60.0
779.35,59.0
779.66,57.0
779.97,60.0
780.28,62.0
780.58,62.0
780.89,63.0
781.2,60.0
781.51,65.0
781.82,63.0
782.13,63.0
782.44,57.0
782.75,61.0
783.06,56.0
783.36,59.0
783.67,57.0
783.98,59.0
784.29,57.0
784.6,56.0
784.91,58.0
785.21,56.0
785.52,58.0
785.83,62.0
786.14,60.0
786.45,64.0
786.76,58.0
787.06,57.0
787.37,62.0
787.68,60.0
787.99,63.0
788.29,58.0
788.6,58.0
788.91,61.0
789.22,61.0
789.52,62.0
789.83,54.0
790.14,56.0
790.45,61.0
790.75,64.0
791.06,56.0
791.37,61.0
791.68,59.0
791.98,61.0
792.29,62.0
792.6,58.0
792.9,60.0
793.21,54.0
793.52,58.0
793.82,75.0
794.13,93.0
794.44,107.0
794.74,115.0
795.05,108.0
795.36,89.0
795.66,83.0
795.97,82.0
796.28,77.0
796.58,76.0
796.89,71.0
797.2,73.0
797.5,71.0
797.81,66.0
798.11,67.0
798.42,59.0
798.73,61.0
799.03,63.0
799.34,60.0
799.64,71.0
799.95,86.0
800.25,97.0
800.56,113.0
800.87,117.0
801.17,121.0
801.48,120.0
801.78,108.0
802.09,92.0
802.39,91.0
802.7,83.0
803.0,85.0
803.31,77.0
803.61,74.0
803.92,70.0
804.22,68.0
804.53,65.0
804.83,61.0
805.14,62.0
805.44,62.0
805.75,58.0
806.05,62.0
806.36,58.0
806.66,59.0
806.97,61.0
807.27,56.0
807.57,58.0
807.88,61.0
808.18,65.0
808.49,64.0
808.79,59.0
809.1,65.0
809.4,71.0
809.7,86.0
810.01,97.0
810.31,118.0
810.62,139.0
810.92,162.0
811.22,190.0
811.53,186.0
811.83,166.0
812.13,147.0
812.44,130.0
812.74,121.0
813.04,108.0
813.35,104.0
813.65,93.0
813.95,89.0
814.26,86.0
814.56,77.0
814.86,64.0
815.17,61.0
815.47,57.0
815.77,56.0
816.08,61.0
816.38,62.0
816.68,61.0
816.98,61.0
817.29,60.0
817.59,59.0
817.89,62.0
818.19,56.0
818.5,58.0
818.8,63.0
819.1,60.0
819.4,58.0
819.71,59.0
820.01,59.0
820.31,58.0
820.61,60.0
820.91,59.0
821.22,63.0
821.52,58.0
821.82,57.0
822.12,55.0
822.42,57.0
822.72,57.0
823.03,55.0
823.33,58.0
823.63,60.0
823.93,58.0
824.23,59.0
824.53,61.0
824.83,57.0
825.14,63.0
825.44,68.0
825.74,88.0
826.04,110.0
826.34,126.0
826.64,126.0
826.94,115.0
827.24,105.0
827.54,96.0
827.84,94.0
828.14,89.0
828.44,88.0
828.75,85.0
829.05,73.0
829.35,71.0
829.65,66.0
829.95,65.0
830.25,62.0
830.55,61.0
830.85,60.0
831.15,60.0
831.45,60.0
831.75,55.0
832.05,54.0
832.35,59.0
832.65,55.0
832.95,56.0
833.25,60.0
833.55,65.0
833.85,61.0
834.15,57.0
834.45,63.0
834.74,60.0
835.04,58.0
835.34,57.0
835.64,57.0
835.94,59.0
836.24,57.0
836.54,59.0
836.84,61.0
837.14,56.0
837.44,56.0
837.74,61.0
838.04,60.0
838.33,61.0
838.63,58.0
838.93,57.0
839.23,59.0
839.53,59.0
839.83,67.0
840.13,70.0
840.42,80.0
840.72,88.0
841.02,87.0
841.32,83.0
841.62,91.0
841.91,95.0
842.21,97.0
842.51,109.0
842.81,101.0
843.11,99.0
843.4,94.0
843.7,90.0
844.0,87.0
844.3,79.0
844.6,83.0
844.89,75.0
845.19,74.0
845.49,69.0
845.79,63.0
846.08,61.0
846.38,63.0
846.68,65.0
846.97,63.0
847.27,62.0
847.57,60.0
847.87,57.0
848.16,61.0
848.46,63.0
848.76,61.0
849.05,58.0
849.35,57.0
849.65,60.0
849.94,57.0
850.24,60.0
850.54,52.0
850.83,63.0
851.13,60.0
851.42,61.0
851.72,67.0
852.02,72.0
852.31,65.0
852.61,72.0
852.91,70.0
853.2,72.0
853.5,65.0
853.79,62.0
854.09,61.0
854.38,65.0
854.68,63.0
854.98,61.0
855.27,62.0
855.57,63.0
855.86,65.0
856.16,58.0
856.45,60.0
856.75,59.0
857.04,56.0
857.34,59.0
857.63,55.0
857.93,55.0
858.22,63.0
858.52,58.0
858.81,58.0
859.11,55.0
859.4,54.0
859.7,58.0
859.99,60.0
860.29,57.0
860.58,52.0
860.88,57.0
861.17,63.0
861.47,59.0
861.76,58.0
862.05,63.0
862.35,58.0
862.64,58.0
862.94,60.0
863.23,59.0
863.53,56.0
863.82,62.0
864.11,57.0
864.41,57.0
864.7,62.0
864.99,62.0
865.29,59.0
865.58,56.0
865.88,57.0
866.17,62.0
866.46,63.0
866.76,66.0
867.05,63.0
867.34,54.0
867.64,61.0
867.93,56.0
868.22,58.0
868.51,55.0
868.81,58.0
869.1,58.0
869.39,58.0
869.69,60.0
869.98,58.0
870.27,55.0
870.56,57.0
870.86,55.0
871.15,62.0
871.44,61.0
871.73,57.0
872.03,60.0
872.32,63.0
872.61,61.0
872.9,59.0
873.2,54.0
873.49,56.0
873.78,58.0
874.07,59.0
874.36,56.0
874.66,59.0
874.95,62.0
875.24,61.0
875.53,63.0
875.82,63.0
