Wavelength,Intensity
350.25,111.0
350.61,113.0
350.97,108.0
351.34,111.0
351.7,115.0
352.07,114.0
352.43,116.0
352.79,122.0
353.16,116.0
353.52,113.0
353.88,114.0
354.25,117.0
354.61,120.0
354.97,115.0
355.34,120.0
355.7,122.0
356.06,121.0
356.43,120.0
356.79,124.0
357.15,121.0
357.52,121.0
357.88,124.0
358.24,123.0
358.6,127.0
358.97,124.0
359.33,130.0
359.69,129.0
360.06,130.0
360.42,127.0
360.78,132.0
361.14,136.0
361.51,133.0
361.87,133.0
362.23,139.0
362.6,139.0
362.96,133.0
363.32,127.0
363.68,137.0
364.05,143.0
364.41,140.0
364.77,147.0
365.13,144.0
365.5,153.0
365.86,147.0
366.22,150.0
366.58,150.0
366.95,151.0
367.31,154.0
367.67,155.0
368.03,152.0
368.39,157.0
368.76,150.0
369.12,146.0
369.48,153.0
369.84,159.0
370.2,156.0
370.57,154.0
370.93,158.0
371.29,157.0
371.65,162.0
372.01,160.0
372.38,160.0
372.74,170.0
373.1,151.0
373.46,163.0
373.82,164.0
374.18,159.0
374.55,156.0
374.91,162.0
375.27,165.0
375.63,163.0
375.99,155.0
376.35,165.0
376.71,163.0
377.08,164.0
377.44,167.0
377.8,175.0
378.16,170.0
378.52,177.0
378.88,177.0
379.24,174.0
379.6,182.0
379.97,196.0
380.33,190.0
380.69,178.0
381.05,182.0
381.41,198.0
381.77,186.0
382.13,190.0
382.49,191.0
382.85,179.0
383.21,189.0
383.57,176.0
383.94,202.0
384.3,194.0
384.66,184.0
385.02,182.0
385.38,187.0
385.74,192.0
386.1,192.0
386.46,202.0
386.82,203.0
387.18,202.0
387.54,203.0
387.9,204.0
388.26,202.0
388.62,203.0
388.98,200.0
389.34,203.0
389.7,210.0
390.06,192.0
390.42,195.0
390.78,204.0
391.14,210.0
391.5,209.0
391.86,227.0
392.22,231.0
392.58,232.0
392.94,204.0
393.3,198.0
393.66,211.0
394.02,212.0
394.38,186.0
394.74,207.0
395.1,205.0
395.46,210.0
395.82,219.0
396.18,200.0
396.54,225.0
396.9,228.0
397.26,220.0
397.62,227.0
397.98,243.0
398.34,207.0
398.7,221.0
399.05,195.0
399.41,202.0
399.77,205.0
400.13,213.0
400.49,219.0
400.85,223.0
401.21,203.0
401.57,228.0
401.93,205.0
402.29,202.0
402.65,205.0
403.0,224.0
403.36,217.0
403.72,216.0
404.08,235.0
404.44,222.0
404.8,226.0
405.16,230.0
405.52,221.0
405.87,231.0
406.23,217.0
406.59,205.0
406.95,216.0
407.31,217.0
407.67,224.0
408.03,219.0
408.38,222.0
408.74,243.0
409.1,239.0
409.46,228.0
409.82,227.0
410.17,226.0
410.53,209.0
410.89,219.0
411.25,195.0
411.61,215.0
411.97,232.0
412.32,233.0
412.68,234.0
413.04,217.0
413.4,204.0
413.75,210.0
414.11,210.0
414.47,207.0
414.83,229.0
415.19,216.0
415.54,204.0
415.9,237.0
416.26,223.0
416.62,220.0
416.97,199.0
417.33,239.0
417.69,231.0
418.05,226.0
418.4,207.0
418.76,211.0
419.12,231.0
419.48,237.0
419.83,251.0
420.19,230.0
420.55,237.0
420.9,266.0
421.26,241.0
421.62,229.0
421.98,243.0
422.33,254.0
422.69,266.0
423.05,247.0
423.4,221.0
423.76,211.0
424.12,238.0
424.47,235.0
424.83,223.0
425.19,225.0
425.54,218.0
425.9,246.0
426.26,241.0
426.61,257.0
426.97,194.0
427.33,231.0
427.68,232.0
428.04,259.0
428.4,264.0
428.75,271.0
429.11,252.0
429.47,287.0
429.82,271.0
430.18,256.0
430.53,248.0
430.89,248.0
431.25,236.0
431.6,239.0
431.96,236.0
432.31,240.0
432.67,256.0
433.03,270.0
433.38,244.0
433.74,252.0
434.09,248.0
434.45,244.0
434.81,236.0
435.16,258.0
435.52,237.0
435.87,229.0
436.23,226.0
436.58,225.0
436.94,240.0
437.3,257.0
437.65,257.0
438.01,259.0
438.36,240.0
438.72,237.0
439.07,223.0
439.43,240.0
439.78,259.0
440.14,280.0
440.49,245.0
440.85,262.0
441.2,264.0
441.56,246.0
441.91,276.0
442.27,252.0
442.62,256.0
442.98,263.0
443.33,249.0
443.69,269.0
444.04,255.0
444.4,247.0
444.75,264.0
445.11,270.0
445.46,279.0
445.82,272.0
446.17,263.0
446.53,269.0
446.88,290.0
447.23,233.0
447.59,244.0
447.94,245.0
448.3,248.0
448.65,248.0
449.01,261.0
449.36,270.0
449.72,275.0
450.07,285.0
450.42,268.0
450.78,259.0
451.13,275.0
451.49,255.0
451.84,255.0
452.19,242.0
452.55,250.0
452.9,254.0
453.26,279.0
453.61,282.0
453.96,246.0
454.32,273.0
454.67,262.0
455.02,240.0
455.38,252.0
455.73,247.0
456.09,278.0
456.44,277.0
456.79,273.0
457.15,262.0
457.5,263.0
457.85,271.0
458.21,268.0
458.56,263.0
458.91,257.0
459.27,246.0
459.62,255.0
459.97,262.0
460.32,264.0
460.68,248.0
461.03,241.0
461.38,251.0
461.74,270.0
462.09,270.0
462.44,253.0
462.8,265.0
463.15,264.0
463.5,256.0
463.85,278.0
464.21,280.0
464.56,291.0
464.91,252.0
465.26,262.0
465.62,267.0
465.97,283.0
466.32,268.0
466.67,265.0
467.03,269.0
467.38,268.0
467.73,260.0
468.08,271.0
468.44,273.0
468.79,271.0
469.14,258.0
469.49,261.0
469.85,264.0
470.2,291.0
470.55,287.0
470.9,287.0
471.25,276.0
471.61,289.0
471.96,282.0
472.31,298.0
472.66,295.0
473.01,304.0
473.36,318.0
473.72,307.0
474.07,311.0
474.42,310.0
474.77,327.0
475.12,319.0
475.47,326.0
475.83,328.0
476.18,324.0
476.53,325.0
476.88,341.0
477.23,345.0
477.58,336.0
477.93,339.0
478.28,333.0
478.64,348.0
478.99,354.0
479.34,363.0
479.69,364.0
480.04,367.0
480.39,372.0
480.74,373.0
481.09,386.0
481.44,377.0
481.79,383.0
482.15,373.0
482.5,384.0
482.85,384.0
483.2,411.0
483.55,410.0
483.9,431.0
484.25,493.0
484.6,532.0
484.95,587.0
485.3,565.0
485.65,517.0
486.0,488.0
486.35,446.0
486.7,423.0
487.05,431.0
487.4,418.0
487.75,420.0
488.1,411.0
488.45,410.0
488.8,408.0
489.15,425.0
489.5,420.0
489.85,429.0
490.2,421.0
490.55,427.0
490.9,423.0
491.25,424.0
491.6,422.0
491.95,412.0
492.3,425.0
492.65,427.0
493.0,422.0
493.35,416.0
493.7,426.0
494.05,428.0
494.4,433.0
494.75,443.0
495.1,442.0
495.45,438.0
495.8,435.0
496.15,439.0
496.5,433.0
496.84,423.0
497.19,431.0
497.54,442.0
497.89,441.0
498.24,443.0
498.59,445.0
498.94,441.0
499.29,435.0
499.64,433.0
499.99,435.0
500.33,447.0
500.68,433.0
501.03,444.0
501.38,437.0
501.73,456.0
502.08,441.0
502.43,453.0
502.77,443.0
503.12,448.0
503.47,450.0
503.82,456.0
504.17,445.0
504.52,450.0
504.86,449.0
505.21,456.0
505.56,450.0
505.91,449.0
506.26,442.0
506.61,444.0
506.95,447.0
507.3,441.0
507.65,443.0
508.0,450.0
508.35,454.0
508.69,446.0
509.04,451.0
509.39,453.0
509.74,458.0
510.08,455.0
510.43,463.0
510.78,466.0
511.13,451.0
511.47,448.0
511.82,455.0
512.17,451.0
512.52,452.0
512.86,462.0
513.21,455.0
513.56,455.0
513.91,452.0
514.25,455.0
514.6,457.0
514.95,446.0
515.3,461.0
515.64,457.0
515.99,474.0
516.34,478.0
516.68,465.0
517.03,457.0
517.38,468.0
517.72,467.0
518.07,466.0
518.42,473.0
518.76,482.0
519.11,467.0
519.46,467.0
519.8,461.0
520.15,466.0
520.5,477.0
520.84,465.0
521.19,465.0
521.54,472.0
521.88,467.0
522.23,479.0
522.58,483.0
522.92,466.0
523.27,478.0
523.61,482.0
523.96,463.0
524.31,478.0
524.65,478.0
525.0,473.0
525.34,465.0
525.69,466.0
526.04,483.0
526.38,486.0
526.73,471.0
527.07,481.0
527.42,472.0
527.76,487.0
528.11,491.0
528.46,481.0
528.8,488.0
529.15,479.0
529.49,460.0
529.84,472.0
530.18,479.0
530.53,469.0
530.87,474.0
531.22,483.0
531.56,486.0
531.91,489.0
532.25,487.0
532.6,490.0
532.94,490.0
533.29,489.0
533.63,493.0
533.98,489.0
534.32,495.0
534.67,508.0
535.01,486.0
535.36,485.0
535.7,475.0
536.05,489.0
536.39,494.0
536.74,489.0
537.08,484.0
537.43,483.0
537.77,499.0
538.12,497.0
538.46,500.0
538.8,500.0
539.15,492.0
539.49,487.0
539.84,495.0
540.18,499.0
540.53,491.0
540.87,489.0
541.21,511.0
541.56,499.0
541.9,507.0
542.25,504.0
542.59,508.0
542.93,504.0
543.28,498.0
543.62,492.0
543.97,502.0
544.31,505.0
544.65,491.0
545.0,508.0
545.34,503.0
545.68,497.0
546.03,492.0
546.37,513.0
546.71,508.0
547.06,515.0
547.4,515.0
547.74,513.0
548.09,510.0
548.43,504.0
548.77,490.0
549.12,500.0
549.46,504.0
549.8,505.0
550.15,489.0
550.49,490.0
550.83,490.0
551.17,511.0
551.52,499.0
551.86,513.0
552.2,511.0
552.55,509.0
552.89,509.0
553.23,507.0
553.57,502.0
553.92,511.0
554.26,512.0
554.6,506.0
554.94,523.0
555.29,521.0
555.63,521.0
555.97,519.0
556.31,515.0
556.66,519.0
557.0,514.0
557.34,516.0
557.68,515.0
558.02,520.0
558.37,505.0
558.71,513.0
559.05,525.0
559.39,517.0
559.73,533.0
560.08,531.0
560.42,519.0
560.76,521.0
561.1,524.0
561.44,519.0
561.78,531.0
562.13,532.0
562.47,526.0
562.81,524.0
563.15,527.0
563.49,529.0
563.83,519.0
564.17,529.0
564.52,531.0
564.86,539.0
565.2,533.0
565.54,523.0
565.88,538.0
566.22,544.0
566.56,540.0
566.9,551.0
567.24,561.0
567.59,549.0
567.93,569.0
568.27,575.0
568.61,588.0
568.95,593.0
569.29,605.0
569.63,617.0
569.97,611.0
570.31,612.0
570.65,622.0
570.99,636.0
571.33,622.0
571.67,617.0
572.01,623.0
572.35,643.0
572.69,645.0
573.03,668.0
573.37,664.0
573.71,667.0
574.05,671.0
574.39,640.0
574.73,654.0
575.07,657.0
575.41,645.0
575.75,642.0
576.09,686.0
576.43,696.0
576.77,715.0
577.11,723.0
577.45,703.0
577.79,669.0
578.13,671.0
578.47,655.0
578.81,669.0
579.15,661.0
579.49,660.0
579.83,684.0
580.17,736.0
580.51,768.0
580.85,785.0
581.19,745.0
581.53,708.0
581.87,668.0
582.2,651.0
582.54,629.0
582.88,622.0
583.22,641.0
583.56,648.0
583.9,672.0
584.24,689.0
584.58,673.0
584.92,674.0
585.25,650.0
585.59,633.0
585.93,629.0
586.27,658.0
586.61,658.0
586.95,646.0
587.29,645.0
587.62,625.0
587.96,610.0
588.3,587.0
588.64,590.0
588.98,582.0
589.31,580.0
589.65,569.0
589.99,560.0
590.33,568.0
590.67,570.0
591.01,579.0
591.34,587.0
591.68,623.0
592.02,653.0
592.36,630.0
592.69,641.0
593.03,626.0
593.37,605.0
593.71,615.0
594.04,608.0
594.38,608.0
594.72,594.0
595.06,586.0
595.39,585.0
595.73,574.0
596.07,579.0
596.41,574.0
596.74,579.0
597.08,578.0
597.42,594.0
597.76,608.0
598.09,616.0
598.43,605.0
598.77,604.0
599.1,630.0
599.44,615.0
599.78,619.0
600.11,610.0
600.45,603.0
600.79,593.0
601.12,590.0
601.46,592.0
601.8,605.0
602.13,604.0
602.47,609.0
602.81,609.0
603.14,598.0
603.48,567.0
603.82,587.0
604.15,575.0
604.49,575.0
604.82,581.0
605.16,587.0
605.5,577.0
605.83,577.0
606.17,584.0
606.5,571.0
606.84,574.0
607.18,577.0
607.51,576.0
607.85,568.0
608.18,569.0
608.52,572.0
608.86,568.0
609.19,573.0
609.53,567.0
609.86,573.0
610.2,565.0
610.53,562.0
610.87,555.0
611.2,561.0
611.54,554.0
611.87,548.0
612.21,548.0
612.54,539.0
612.88,550.0
613.21,549.0
613.55,553.0
613.88,555.0
614.22,557.0
614.55,553.0
614.89,557.0
615.22,535.0
615.56,538.0
615.89,533.0
616.23,542.0
616.56,522.0
616.9,531.0
617.23,525.0
617.57,538.0
617.9,523.0
618.24,521.0
618.57,513.0
618.9,521.0
619.24,516.0
619.57,501.0
619.91,502.0
620.24,489.0
620.58,503.0
620.91,516.0
621.24,496.0
621.58,509.0
621.91,510.0
622.25,502.0
622.58,509.0
622.91,515.0
623.25,501.0
623.58,513.0
623.91,497.0
624.25,499.0
624.58,492.0
624.92,484.0
625.25,489.0
625.58,477.0
625.92,468.0
626.25,483.0
626.58,479.0
626.92,472.0
627.25,467.0
627.58,478.0
627.91,482.0
628.25,489.0
628.58,483.0
628.91,488.0
629.25,485.0
629.58,470.0
629.91,478.0
630.25,468.0
630.58,468.0
630.91,472.0
631.24,459.0
631.58,453.0
631.91,459.0
632.24,458.0
632.57,455.0
632.91,447.0
633.24,437.0
633.57,449.0
633.9,450.0
634.24,453.0
634.57,447.0
634.9,440.0
635.23,441.0
635.56,452.0
635.9,454.0
636.23,447.0
636.56,444.0
636.89,454.0
637.22,439.0
637.56,441.0
637.89,446.0
638.22,433.0
638.55,439.0
638.88,428.0
639.21,443.0
639.55,431.0
639.88,430.0
640.21,435.0
640.54,428.0
640.87,425.0
641.2,427.0
641.53,424.0
641.87,427.0
642.2,431.0
642.53,425.0
642.86,424.0
643.19,418.0
643.52,419.0
643.85,418.0
644.18,415.0
644.51,415.0
644.84,426.0
645.18,425.0
645.51,407.0
645.84,416.0
646.17,419.0
646.5,408.0
646.83,419.0
647.16,420.0
647.49,424.0
647.82,429.0
648.15,427.0
648.48,423.0
648.81,430.0
649.14,421.0
649.47,417.0
649.8,419.0
650.13,414.0
650.46,429.0
650.79,431.0
651.12,426.0
651.45,414.0
651.78,425.0
652.11,410.0
652.44,405.0
652.77,408.0
653.1,412.0
653.43,417.0
653.76,411.0
654.09,436.0
654.42,617.0
654.75,956.0
655.08,1173.0
655.41,1262.0
655.74,1059.0
656.07,874.0
656.39,743.0
656.72,642.0
657.05,553.0
657.38,488.0
657.71,436.0
658.04,421.0
658.37,408.0
658.7,409.0
659.03,401.0
659.36,406.0
659.68,406.0
660.01,406.0
660.34,400.0
660.67,398.0
661.0,404.0
661.33,404.0
661.66,395.0
661.98,392.0
662.31,391.0
662.64,401.0
662.97,398.0
663.3,390.0
663.63,394.0
663.95,401.0
664.28,384.0
664.61,385.0
664.94,393.0
665.27,391.0
665.59,383.0
665.92,396.0
666.25,399.0
666.58,387.0
666.91,394.0
667.23,384.0
667.56,386.0
667.89,391.0
668.22,383.0
668.54,385.0
668.87,386.0
669.2,392.0
669.53,380.0
669.85,375.0
670.18,383.0
670.51,379.0
670.83,380.0
671.16,398.0
671.49,401.0
671.82,390.0
672.14,400.0
672.47,387.0
672.8,383.0
673.12,382.0
673.45,384.0
673.78,372.0
674.1,373.0
674.43,374.0
674.76,382.0
675.08,380.0
675.41,375.0
675.74,381.0
676.06,375.0
676.39,373.0
676.72,375.0
677.04,367.0
677.37,373.0
677.69,381.0
678.02,375.0
678.35,371.0
678.67,377.0
679.0,382.0
679.32,377.0
679.65,370.0
679.98,386.0
680.3,375.0
680.63,371.0
680.95,368.0
681.28,367.0
681.6,351.0
681.93,362.0
682.26,355.0
682.58,359.0
682.91,350.0
683.23,361.0
683.56,363.0
683.88,374.0
684.21,371.0
684.53,367.0
684.86,377.0
685.18,375.0
685.51,367.0
685.83,370.0
686.16,360.0
686.48,363.0
686.81,359.0
687.13,364.0
687.46,360.0
687.78,363.0
688.11,353.0
688.43,342.0
688.76,347.0
689.08,353.0
689.41,353.0
689.73,352.0
690.05,336.0
690.38,353.0
690.7,353.0
691.03,346.0
691.35,356.0
691.68,351.0
692.0,340.0
692.32,347.0
692.65,341.0
692.97,335.0
693.29,339.0
693.62,338.0
693.94,332.0
694.27,335.0
694.59,330.0
694.91,330.0
695.24,339.0
695.56,325.0
695.88,330.0
696.21,326.0
696.53,347.0
696.85,335.0
697.18,333.0
697.5,326.0
697.82,337.0
698.15,330.0
698.47,320.0
698.79,321.0
699.12,324.0
699.44,314.0
699.76,322.0
700.09,321.0
700.41,314.0
700.73,311.0
701.05,323.0
701.38,322.0
701.7,315.0
702.02,322.0
702.34,319.0
702.67,317.0
702.99,321.0
703.31,319.0
703.63,311.0
703.96,307.0
704.28,301.0
704.6,304.0
704.92,312.0
705.25,312.0
705.57,303.0
705.89,308.0
706.21,318.0
706.53,311.0
706.86,323.0
707.18,314.0
707.5,321.0
707.82,319.0
708.14,318.0
708.46,320.0
708.79,315.0
709.11,310.0
709.43,300.0
709.75,308.0
710.07,315.0
710.39,301.0
710.71,313.0
711.04,309.0
711.36,303.0
711.68,304.0
712.0,301.0
712.32,297.0
712.64,296.0
712.96,297.0
713.28,294.0
713.6,304.0
713.92,302.0
714.24,301.0
714.57,298.0
714.89,296.0
715.21,291.0
715.53,294.0
715.85,286.0
716.17,294.0
716.49,295.0
716.81,290.0
717.13,290.0
717.45,286.0
717.77,290.0
718.09,296.0
718.41,296.0
718.73,282.0
719.05,285.0
719.37,277.0
719.69,285.0
720.01,286.0
720.33,288.0
720.65,281.0
720.97,290.0
721.29,280.0
721.61,288.0
721.93,277.0
722.25,278.0
722.57,279.0
722.89,281.0
723.21,278.0
723.52,286.0
723.84,277.0
724.16,277.0
724.48,275.0
724.8,275.0
725.12,280.0
725.44,279.0
725.76,274.0
726.08,276.0
726.4,274.0
726.72,272.0
727.03,265.0
727.35,274.0
727.67,270.0
727.99,275.0
728.31,271.0
728.63,273.0
728.95,267.0
729.26,271.0
729.58,275.0
729.9,265.0
730.22,267.0
730.54,266.0
730.86,274.0
731.17,274.0
731.49,267.0
731.81,275.0
732.13,273.0
732.45,265.0
732.76,259.0
733.08,265.0
733.4,271.0
733.72,272.0
734.03,271.0
734.35,270.0
734.67,267.0
734.99,262.0
735.3,269.0
735.62,264.0
735.94,258.0
736.26,257.0
736.57,258.0
736.89,252.0
737.21,251.0
737.53,253.0
737.84,248.0
738.16,244.0
738.48,259.0
738.79,253.0
739.11,249.0
739.43,251.0
739.74,241.0
740.06,244.0
740.38,245.0
740.69,239.0
741.01,245.0
741.33,241.0
741.64,248.0
741.96,243.0
742.28,231.0
742.59,239.0
742.91,234.0
743.23,231.0
743.54,233.0
743.86,237.0
744.17,230.0
744.49,230.0
744.81,234.0
745.12,227.0
745.44,230.0
745.75,229.0
746.07,229.0
746.38,223.0
746.7,225.0
747.02,229.0
747.33,223.0
747.65,225.0
747.96,215.0
748.28,226.0
748.59,224.0
748.91,228.0
749.22,227.0
749.54,223.0
749.85,225.0
750.17,223.0
750.48,219.0
750.8,219.0
751.11,218.0
751.43,216.0
751.74,221.0
752.06,223.0
752.37,212.0
752.69,220.0
753.0,219.0
753.32,226.0
753.63,225.0
753.95,220.0
754.26,224.0
754.58,218.0
754.89,223.0
755.2,213.0
755.52,218.0
755.83,229.0
756.15,226.0
756.46,234.0
756.78,223.0
757.09,221.0
757.4,225.0
757.72,225.0
758.03,225.0
758.34,216.0
758.66,222.0
758.97,225.0
759.29,222.0
759.6,218.0
759.91,231.0
760.23,229.0
760.54,223.0
760.85,213.0
761.17,218.0
761.48,216.0
761.79,209.0
762.11,212.0
762.42,205.0
762.73,203.0
763.05,205.0
763.36,211.0
763.67,221.0
763.98,222.0
764.3,214.0
764.61,212.0
764.92,215.0
765.23,213.0
765.55,204.0
765.86,197.0
766.17,204.0
766.48,196.0
766.8,199.0
767.11,202.0
767.42,204.0
767.73,196.0
768.05,212.0
768.36,206.0
768.67,200.0
768.98,200.0
769.29,199.0
769.61,194.0
769.92,198.0
770.23,190.0
770.54,189.0
770.85,200.0
771.17,192.0
771.48,199.0
771.79,196.0
772.1,191.0
772.41,195.0
772.72,194.0
773.03,190.0
773.35,189.0
773.66,184.0
773.97,188.0
774.28,180.0
774.59,177.0
774.9,177.0
775.21,180.0
775.52,185.0
775.83,192.0
776.15,179.0
776.46,176.0
776.77,174.0
777.08,179.0
777.39,176.0
777.7,172.0
778.01,183.0
778.32,175.0
778.63,178.0
778.94,180.0
779.25,186.0
779.56,177.0
779.87,176.0
780.18,173.0
780.49,176.0
780.8,175.0
781.11,177.0
781.42,181.0
781.73,173.0
782.04,174.0
782.35,169.0
782.66,175.0
782.97,168.0
783.28,169.0
783.59,182.0
783.9,170.0
784.21,168.0
784.52,164.0
784.83,161.0
785.14,163.0
785.45,164.0
785.76,161.0
786.06,160.0
786.37,163.0
786.68,164.0
786.99,159.0
787.3,159.0
787.61,166.0
787.92,162.0
788.23,161.0
788.54,163.0
788.84,159.0
789.15,165.0
789.46,164.0
789.77,162.0
790.08,163.0
790.39,155.0
790.7,154.0
791.0,157.0
791.31,153.0
791.62,151.0
791.93,154.0
792.24,145.0
792.54,148.0
792.85,150.0
793.16,158.0
793.47,152.0
793.78,158.0
794.08,155.0
794.39,153.0
794.7,155.0
795.01,149.0
795.31,155.0
795.62,147.0
795.93,143.0
796.24,147.0
796.54,143.0
796.85,155.0
797.16,149.0
797.47,151.0
797.77,141.0
798.08,142.0
798.39,139.0
798.69,146.0
799.0,150.0
799.31,140.0
799.62,140.0
799.92,137.0
800.23,136.0
800.54,142.0
800.84,135.0
801.15,137.0
801.46,142.0
801.76,141.0
802.07,138.0
802.37,134.0
802.68,132.0
802.99,133.0
803.29,132.0
803.6,129.0
803.91,135.0
804.21,131.0
804.52,133.0
804.82,133.0
805.13,132.0
805.44,133.0
805.74,132.0
806.05,136.0
806.35,135.0
806.66,136.0
806.96,130.0
807.27,129.0
807.57,124.0
807.88,129.0
808.19,127.0
808.49,126.0
808.8,123.0
809.1,127.0
809.41,128.0
809.71,119.0
810.02,130.0
810.32,124.0
810.63,123.0
810.93,129.0
811.24,122.0
811.54,118.0
811.85,121.0
812.15,122.0
812.45,122.0
812.76,124.0
813.06,122.0
813.37,123.0
813.67,123.0
813.98,124.0
814.28,127.0
814.58,126.0
814.89,117.0
815.19,117.0
815.5,117.0
815.8,111.0
816.11,114.0
816.41,115.0
816.71,119.0
817.02,114.0
817.32,118.0
817.62,111.0
817.93,111.0
818.23,119.0
818.53,115.0
818.84,111.0
819.14,111.0
819.44,117.0
819.75,113.0
820.05,108.0
820.35,116.0
820.66,118.0
820.96,119.0
821.26,119.0
821.57,113.0
821.87,110.0
822.17,110.0
822.48,109.0
822.78,111.0
823.08,106.0
823.38,109.0
823.69,116.0
823.99,106.0
824.29,109.0
824.59,107.0
824.9,114.0
825.2,110.0
825.5,109.0
825.8,112.0
826.1,108.0
826.41,108.0
826.71,110.0
827.01,113.0
827.31,105.0
827.61,108.0
827.92,104.0
828.22,102.0
828.52,106.0
828.82,111.0
829.12,114.0
829.42,107.0
829.73,107.0
830.03,102.0
830.33,104.0
830.63,104.0
830.93,101.0
831.23,101.0
831.53,103.0
831.83,101.0
832.14,101.0
832.44,102.0
832.74,104.0
833.04,98.0
833.34,100.0
833.64,100.0
833.94,102.0
834.24,104.0
834.54,101.0
834.84,100.0
835.14,105.0
835.44,101.0
835.74,99.0
836.04,95.0
836.34,102.0
836.64,95.0
836.95,97.0
837.25,94.0
837.55,100.0
837.85,101.0
838.15,99.0
838.45,96.0
838.74,88.0
839.04,96.0
839.34,94.0
839.64,96.0
839.94,91.0
840.24,95.0
840.54,101.0
840.84,91.0
841.14,95.0
841.44,92.0
841.74,93.0
842.04,90.0
842.34,94.0
842.64,94.0
842.94,98.0
843.24,94.0
843.53,92.0
843.83,96.0
844.13,92.0
844.43,93.0
844.73,98.0
845.03,96.0
845.33,95.0
845.63,96.0
845.92,93.0
846.22,92.0
846.52,97.0
846.82,87.0
847.12,89.0
847.42,93.0
847.71,91.0
848.01,85.0
848.31,94.0
848.61,97.0
848.91,93.0
849.2,90.0
849.5,86.0
849.8,88.0
850.1,87.0
850.39,88.0
850.69,89.0
850.99,91.0
851.29,93.0
851.59,88.0
851.88,94.0
852.18,92.0
852.48,89.0
852.77,87.0
853.07,87.0
853.37,87.0
853.67,92.0
853.96,89.0
854.26,87.0
854.56,84.0
854.85,83.0
855.15,89.0
855.45,85.0
855.74,89.0
856.04,87.0
856.34,87.0
856.63,83.0
856.93,86.0
857.23,90.0
857.52,89.0
857.82,89.0
858.11,89.0
858.41,85.0
858.71,89.0
859.0,85.0
859.3,85.0
859.59,84.0
859.89,83.0
860.19,86.0
860.48,81.0
860.78,80.0
861.07,79.0
861.37,83.0
861.66,82.0
861.96,85.0
862.26,84.0
862.55,76.0
862.85,83.0
863.14,84.0
863.44,78.0
863.73,85.0
864.03,78.0
864.32,78.0
864.62,80.0
864.91,79.0
865.21,77.0
865.5,78.0
865.8,80.0
866.09,83.0
866.39,78.0
866.68,77.0
866.97,79.0
867.27,80.0
867.56,80.0
867.86,78.0
868.15,82.0
868.45,81.0
868.74,78.0
869.03,76.0
869.33,77.0
869.62,77.0
869.92,77.0
870.21,77.0
870.5,79.0
870.8,80.0
871.09,76.0
871.39,80.0
871.68,79.0
871.97,77.0
872.27,75.0
872.56,72.0
872.85,73.0
873.15,77.0
873.44,75.0
873.73,75.0
874.03,77.0
874.32,73.0
874.61,82.0
874.9,80.0
875.2,72.0
875.49,70.0
875.78,71.0
