Wavelength,Intensity
350.25,64.85
350.61,64.6
350.97,65.15
351.34,64.3
351.7,64.8
352.07,64.95
352.43,64.3
352.79,64.15
353.16,64.35
353.52,65.25
353.88,64.5
354.25,64.8
354.61,64.7
354.97,64.9
355.34,64.8
355.7,64.45
356.06,65.5
356.43,65.65
356.79,65.75
357.15,64.65
357.52,64.65
357.88,64.9
358.24,64.45
358.6,64.55
358.97,65.3
359.33,64.85
359.69,65.05
360.06,65.2
360.42,66.55
360.78,65.25
361.14,64.2
361.51,66.7
361.87,65.6
362.23,66.85
362.6,65.9
362.96,66.5
363.32,64.8
363.68,66.2
364.05,66.5
364.41,66.3
364.77,65.4
365.13,65.85
365.5,65.9
365.86,66.25
366.22,66.55
366.58,66.0
366.95,66.4
367.31,66.3
367.67,66.05
368.03,66.55
368.39,65.95
368.76,66.1
369.12,66.75
369.48,65.1
369.84,66.75
370.2,67.7
370.57,67.3
370.93,66.2
371.29,67.15
371.65,67.3
372.01,66.6
372.38,66.2
372.74,67.05
373.1,66.5
373.46,67.65
373.82,67.55
374.18,65.7
374.55,66.5
374.91,68.05
375.27,67.25
375.63,67.4
375.99,66.85
376.35,67.75
376.71,68.15
377.08,67.1
377.44,66.0
377.8,67.15
378.16,67.9
378.52,67.7
378.88,68.5
379.24,67.05
379.6,67.95
379.97,69.2
380.33,68.6
380.69,67.4
381.05,67.4
381.41,68.1
381.77,69.35
382.13,69.3
382.49,69.25
382.85,69.35
383.21,68.65
383.57,69.85
383.94,70.2
384.3,69.7
384.66,68.85
385.02,69.25
385.38,70.4
385.74,69.55
386.1,69.65
386.46,70.2
386.82,70.25
387.18,70.0
387.54,69.75
387.9,70.25
388.26,70.15
388.62,71.55
388.98,70.85
389.34,71.1
389.7,70.35
390.06,70.15
390.42,71.45
390.78,70.75
391.14,71.55
391.5,71.15
391.86,71.7
392.22,72.15
392.58,71.1
392.94,70.6
393.3,70.65
393.66,71.1
394.02,72.55
394.38,71.7
394.74,72.85
395.1,72.45
395.46,73.8
395.82,72.4
396.18,72.15
396.54,73.45
396.9,73.85
397.26,74.35
397.62,74.6
397.98,74.55
398.34,72.8
398.7,74.25
399.05,72.85
399.41,73.3
399.77,74.15
400.13,75.2
400.49,74.45
400.85,75.4
401.21,73.45
401.57,75.25
401.93,75.3
402.29,75.6
402.65,76.25
403.0,77.3
403.36,76.75
403.72,75.9
404.08,77.5
404.44,74.75
404.8,76.5
405.16,77.7
405.52,77.45
405.87,77.8
406.23,79.2
406.59,76.85
406.95,77.4
407.31,77.95
407.67,77.0
408.03,77.5
408.38,79.35
408.74,79.0
409.1,79.55
409.46,77.5
409.82,80.05
410.17,79.8
410.53,78.85
410.89,79.75
411.25,78.6
411.61,79.25
411.97,81.25
412.32,80.85
412.68,80.55
413.04,79.8
413.4,77.55
413.75,79.6
414.11,81.5
414.47,81.0
414.83,82.85
415.19,80.9
415.54,81.0
415.9,82.85
416.26,82.25
416.62,82.1
416.97,81.8
417.33,83.55
417.69,83.3
418.05,82.9
418.4,82.25
418.76,82.9
419.12,84.4
419.48,83.4
419.83,85.75
420.19,83.55
420.55,84.15
420.9,85.3
421.26,84.7
421.62,84.55
421.98,86.75
422.33,85.75
422.69,87.65
423.05,88.55
423.4,86.4
423.76,85.65
424.12,88.1
424.47,87.85
424.83,86.7
425.19,87.05
425.54,86.95
425.9,88.1
426.26,89.45
426.61,90.45
426.97,86.0
427.33,90.05
427.68,90.8
428.04,90.25
428.4,93.1
428.75,93.9
429.11,91.7
429.47,93.9
429.82,94.6
430.18,94.8
430.53,93.65
430.89,93.3
431.25,94.1
431.6,95.1
431.96,94.2
432.31,93.75
432.67,96.6
433.03,95.55
433.38,95.1
433.74,96.1
434.09,94.6
434.45,95.9
434.81,94.95
435.16,97.75
435.52,96.55
435.87,93.85
436.23,94.85
436.58,94.85
436.94,98.6
437.3,97.4
437.65,100.3
438.01,99.05
438.36,99.3
438.72,97.55
439.07,97.8
439.43,98.4
439.78,101.05
440.14,102.25
440.49,100.5
440.85,100.15
441.2,100.9
441.56,100.6
441.91,104.45
442.27,101.7
442.62,102.65
442.98,103.0
443.33,101.7
443.69,102.35
444.04,104.35
444.4,100.05
444.75,105.05
445.11,106.6
445.46,106.85
445.82,106.95
446.17,104.35
446.53,106.3
446.88,113.05
447.23,105.2
447.59,105.2
447.94,102.7
448.3,108.5
448.65,107.35
449.01,109.25
449.36,110.65
449.72,113.8
450.07,115.85
450.42,113.85
450.78,112.2
451.13,114.55
451.49,112.7
451.84,110.7
452.19,111.0
452.55,114.9
452.9,113.5
453.26,118.3
453.61,120.1
453.96,111.05
454.32,116.95
454.67,118.55
455.02,114.3
455.38,116.2
455.73,116.7
456.09,122.2
456.44,121.0
456.79,120.25
457.15,120.05
457.5,119.3
457.85,120.45
458.21,119.0
458.56,122.0
458.91,121.85
459.27,118.3
459.62,121.05
459.97,120.3
460.32,123.45
460.68,123.85
461.03,122.4
461.38,123.05
461.74,132.2
462.09,128.25
462.44,125.4
462.8,124.55
463.15,126.65
463.5,126.85
463.85,132.55
464.21,129.3
464.56,133.1
464.91,129.0
465.26,128.8
465.62,130.25
465.97,136.25
466.32,133.85
466.67,134.25
467.03,136.0
467.38,137.55
467.73,138.6
468.08,141.6
468.44,140.1
468.79,139.7
469.14,136.05
469.49,141.75
469.85,144.95
470.2,151.95
470.55,151.0
470.9,152.05
471.25,148.7
471.61,151.4
471.96,153.75
472.31,154.4
472.66,155.75
473.01,158.85
473.36,161.85
473.72,159.55
474.07,164.15
474.42,165.65
474.77,164.4
475.12,168.35
475.47,169.55
475.83,171.35
476.18,171.65
476.53,170.35
476.88,178.3
477.23,178.6
477.58,177.15
477.93,180.4
478.28,180.35
478.64,183.6
478.99,185.95
479.34,187.6
479.69,190.55
480.04,193.6
480.39,194.75
480.74,194.35
481.09,200.05
481.44,200.5
481.79,202.2
482.15,201.9
482.5,205.25
482.85,205.55
483.2,211.2
483.55,209.75
483.9,213.4
484.25,212.15
484.6,212.2
484.95,216.85
485.3,218.6
485.65,220.4
486.0,223.2
486.35,221.55
486.7,223.75
487.05,229.6
487.4,229.35
487.75,229.05
488.1,231.9
488.45,228.3
488.8,231.6
489.15,236.9
489.5,236.6
489.85,238.15
490.2,240.0
490.55,242.4
490.9,241.75
491.25,243.45
491.6,244.1
491.95,245.45
492.3,246.65
492.65,249.0
493.0,251.1
493.35,251.2
493.7,252.75
494.05,253.5
494.4,257.15
494.75,257.35
495.1,257.95
495.45,259.25
495.8,260.8
496.15,262.65
496.5,261.9
496.84,263.35
497.19,264.35
497.54,269.0
497.89,268.35
498.24,269.3
498.59,273.0
498.94,273.7
499.29,274.65
499.64,275.2
499.99,279.65
500.33,281.9
500.68,284.4
501.03,287.05
501.38,288.7
501.73,293.55
502.08,293.4
502.43,299.75
502.77,301.25
503.12,305.15
503.47,307.1
503.82,313.45
504.17,319.25
504.52,322.65
504.86,324.95
505.21,335.35
505.56,336.15
505.91,341.35
506.26,346.95
506.61,355.4
506.95,362.9
507.3,369.5
507.65,380.55
508.0,385.05
508.35,393.2
508.69,402.1
509.04,413.85
509.39,419.9
509.74,429.0
510.08,438.25
510.43,454.0
510.78,466.65
511.13,476.9
511.47,493.1
511.82,507.1
512.17,519.65
512.52,537.75
512.86,552.85
513.21,567.0
513.56,584.3
513.91,602.75
514.25,618.6
514.6,640.0
514.95,656.05
515.3,671.65
515.64,688.75
515.99,717.05
516.34,736.7
516.68,758.45
517.03,774.1
517.38,791.6
517.72,823.05
518.07,837.1
518.42,856.2
518.76,878.35
519.11,899.75
519.46,925.05
519.8,932.9
520.15,955.65
520.5,979.75
520.84,992.3
521.19,1012.6
521.54,1031.85
521.88,1042.4
522.23,1064.4
522.58,1074.5
522.92,1093.95
523.27,1111.25
523.61,1125.75
523.96,1137.05
524.31,1165.0
524.65,1175.9
525.0,1178.25
525.34,1179.75
525.69,1190.45
526.04,1219.8
526.38,1226.55
526.73,1237.25
527.07,1252.5
527.42,1256.2
527.76,1266.05
528.11,1280.95
528.46,1280.0
528.8,1282.85
529.15,1283.2
529.49,1292.05
529.84,1300.3
530.18,1311.85
530.53,1329.85
530.87,1330.1
531.22,1328.3
531.56,1335.25
531.91,1341.75
532.25,1340.3
532.6,1343.35
532.94,1355.65
533.29,1351.85
533.63,1349.1
533.98,1354.95
534.32,1364.35
534.67,1376.3
535.01,1385.35
535.36,1381.85
535.7,1396.5
536.05,1398.05
536.39,1405.2
536.74,1390.0
537.08,1383.15
537.43,1389.2
537.77,1403.7
538.12,1421.25
538.46,1423.65
538.8,1430.75
539.15,1417.75
539.49,1424.45
539.84,1442.6
540.18,1439.7
540.53,1439.45
540.87,1436.55
541.21,1457.3
541.56,1450.9
541.9,1461.85
542.25,1456.05
542.59,1454.25
542.93,1471.4
543.28,1462.6
543.62,1474.1
543.97,1473.6
544.31,1483.6
544.65,1484.55
545.0,1493.4
545.34,1496.6
545.68,1500.1
546.03,1497.35
546.37,1511.85
546.71,1512.35
547.06,1519.15
547.4,1515.45
547.74,1536.85
548.09,1525.9
548.43,1535.3
548.77,1538.2
549.12,1534.4
549.46,1533.45
549.8,1549.15
550.15,1557.55
550.49,1564.15
550.83,1559.45
551.17,1569.05
551.52,1567.4
551.86,1569.9
552.2,1579.4
552.55,1588.35
552.89,1591.6
553.23,1596.65
553.57,1603.7
553.92,1601.35
554.26,1614.2
554.6,1609.4
554.94,1612.55
555.29,1624.5
555.63,1630.4
555.97,1636.9
556.31,1634.2
556.66,1642.5
557.0,1636.25
557.34,1653.9
557.68,1663.0
558.02,1662.25
558.37,1660.1
558.71,1669.5
559.05,1666.25
559.39,1676.95
559.73,1686.9
560.08,1685.15
560.42,1696.0
560.76,1694.85
561.1,1695.75
561.44,1694.0
561.78,1709.2
562.13,1712.9
562.47,1703.5
562.81,1720.65
563.15,1716.8
563.49,1724.8
563.83,1735.8
564.17,1735.25
564.52,1736.5
564.86,1744.9
565.2,1746.3
565.54,1746.6
565.88,1743.0
566.22,1755.6
566.56,1747.1
566.9,1758.65
567.24,1761.15
567.59,1755.9
567.93,1760.45
568.27,1770.25
568.61,1780.9
568.95,1770.35
569.29,1771.3
569.63,1792.9
569.97,1785.3
570.31,1763.1
570.65,1778.75
570.99,1788.15
571.33,1795.45
571.67,1783.4
572.01,1786.0
572.35,1796.95
572.69,1802.1
573.03,1809.15
573.37,1803.2
573.71,1800.35
574.05,1787.55
574.39,1791.25
574.73,1801.5
575.07,1796.6
575.41,1801.0
575.75,1805.9
576.09,1824.05
576.43,1815.75
576.77,1816.6
577.11,1800.3
577.45,1815.6
577.79,1801.9
578.13,1818.75
578.47,1795.6
578.81,1802.35
579.15,1813.8
579.49,1828.9
579.83,1828.55
580.17,1833.15
580.51,1827.85
580.85,1830.3
581.19,1824.55
581.53,1817.85
581.87,1825.2
582.2,1824.85
582.54,1832.15
582.88,1827.6
583.22,1815.25
583.56,1814.1
583.9,1841.95
584.24,1831.4
584.58,1831.05
584.92,1842.65
585.25,1842.7
585.59,1836.8
585.93,1848.1
586.27,1855.35
586.61,1831.7
586.95,1847.2
587.29,1853.2
587.62,1844.7
587.96,1851.25
588.3,1849.75
588.64,1847.1
588.98,1848.8
589.31,1857.0
589.65,1847.55
589.99,1838.25
590.33,1854.3
590.67,1857.05
591.01,1859.6
591.34,1870.9
591.68,1866.7
592.02,1871.9
592.36,1863.8
592.69,1866.55
593.03,1874.65
593.37,1876.25
593.71,1873.55
594.04,1875.3
594.38,1869.35
594.72,1885.5
595.06,1879.05
595.39,1874.4
595.73,1879.65
596.07,1897.4
596.41,1893.5
596.74,1892.05
597.08,1893.75
597.42,1898.1
597.76,1884.05
598.09,1900.35
598.43,1893.25
598.77,1902.6
599.1,1910.6
599.44,1900.55
599.78,1904.45
600.11,1915.1
600.45,1917.4
600.79,1914.65
601.12,1909.9
601.46,1929.15
601.8,1927.85
602.13,1916.0
602.47,1929.85
602.81,1916.7
603.14,1922.15
603.48,1939.35
603.82,1927.05
604.15,1930.55
604.49,1937.5
604.82,1934.35
605.16,1941.65
605.5,1925.2
605.83,1953.1
606.17,1947.5
606.5,1948.4
606.84,1940.05
607.18,1942.65
607.51,1946.9
607.85,1948.4
608.18,1951.7
608.52,1953.9
608.86,1955.75
609.19,1961.0
609.53,1942.75
609.86,1961.5
610.2,1957.05
610.53,1954.5
610.87,1949.3
611.2,1977.05
611.54,1948.15
611.87,1961.8
612.21,1967.05
612.54,1958.9
612.88,1959.2
613.21,1963.95
613.55,1966.65
613.88,1958.55
614.22,1962.95
614.55,1951.95
614.89,1948.3
615.22,1955.2
615.56,1954.35
615.89,1960.55
616.23,1965.2
616.56,1941.15
616.9,1961.2
617.23,1945.85
617.57,1969.75
617.9,1958.05
618.24,1963.35
618.57,1964.7
618.9,1954.15
619.24,1948.0
619.57,1952.25
619.91,1966.8
620.24,1934.2
620.58,1953.7
620.91,1954.25
621.24,1956.3
621.58,1959.35
621.91,1946.55
622.25,1950.1
622.58,1952.45
622.91,1967.8
623.25,1940.85
623.58,1949.55
623.91,1945.7
624.25,1951.95
624.58,1948.7
624.92,1947.2
625.25,1950.85
625.58,1935.2
625.92,1957.9
626.25,1942.25
626.58,1951.0
626.92,1941.4
627.25,1950.95
627.58,1944.2
627.91,1948.15
628.25,1945.3
628.58,1949.75
628.91,1937.55
629.25,1940.35
629.58,1935.65
629.91,1937.7
630.25,1949.45
630.58,1939.05
630.91,1933.45
631.24,1940.7
631.58,1941.35
631.91,1948.2
632.24,1921.2
632.57,1929.3
632.91,1937.6
633.24,1921.3
633.57,1931.4
633.9,1935.5
634.24,1929.3
634.57,1932.55
634.9,1931.05
635.23,1905.75
635.56,1913.75
635.9,1910.3
636.23,1915.4
636.56,1919.55
636.89,1922.1
637.22,1918.35
637.56,1919.25
637.89,1897.1
638.22,1903.9
638.55,1914.0
638.88,1887.1
639.21,1900.6
639.55,1897.2
639.88,1901.15
640.21,1902.75
640.54,1892.75
640.87,1890.45
641.2,1891.95
641.53,1904.25
641.87,1893.9
642.2,1893.3
642.53,1886.65
642.86,1891.25
643.19,1888.4
643.52,1888.0
643.85,1885.5
644.18,1883.5
644.51,1875.05
644.84,1880.15
645.18,1874.5
645.51,1869.45
645.84,1878.2
646.17,1875.6
646.5,1878.7
646.83,1883.7
647.16,1867.55
647.49,1869.9
647.82,1873.3
648.15,1869.4
648.48,1876.75
648.81,1876.8
649.14,1866.6
649.47,1869.6
649.8,1858.05
650.13,1851.25
650.46,1866.55
650.79,1860.25
651.12,1873.4
651.45,1863.4
651.78,1851.35
652.11,1858.1
652.44,1850.65
652.77,1855.95
653.1,1866.5
653.43,1862.95
653.76,1862.4
654.09,1846.55
654.42,1855.2
654.75,1855.15
655.08,1846.3
655.41,1847.25
655.74,1827.9
656.07,1850.4
656.39,1848.35
656.72,1842.25
657.05,1839.95
657.38,1853.2
657.71,1851.25
658.04,1840.0
658.37,1839.75
658.7,1847.65
659.03,1841.55
659.36,1837.8
659.68,1839.9
660.01,1839.1
660.34,1841.4
660.67,1836.2
661.0,1847.15
661.33,1829.1
661.66,1824.4
661.98,1834.35
662.31,1834.25
662.64,1825.7
662.97,1824.75
663.3,1813.4
663.63,1819.5
663.95,1808.75
664.28,1816.35
664.61,1809.95
664.94,1815.85
665.27,1825.05
665.59,1810.6
665.92,1819.6
666.25,1806.65
666.58,1795.5
666.91,1818.95
667.23,1804.85
667.56,1798.3
667.89,1792.25
668.22,1800.55
668.54,1800.15
668.87,1807.3
669.2,1793.2
669.53,1799.65
669.85,1796.1
670.18,1783.6
670.51,1779.5
670.83,1775.75
671.16,1788.05
671.49,1790.6
671.82,1779.55
672.14,1765.5
672.47,1773.4
672.8,1769.1
673.12,1774.15
673.45,1778.65
673.78,1753.6
674.1,1768.25
674.43,1752.0
674.76,1748.7
675.08,1759.5
675.41,1742.8
675.74,1745.25
676.06,1747.8
676.39,1736.65
676.72,1737.85
677.04,1742.65
677.37,1738.65
677.69,1726.45
678.02,1721.85
678.35,1723.1
678.67,1697.6
679.0,1723.5
679.32,1718.65
679.65,1708.9
679.98,1716.65
680.3,1701.55
680.63,1699.45
680.95,1690.85
681.28,1697.7
681.6,1683.6
681.93,1681.0
682.26,1684.1
682.58,1680.85
682.91,1682.85
683.23,1667.1
683.56,1659.85
683.88,1669.55
684.21,1657.4
684.53,1666.05
684.86,1663.4
685.18,1656.75
685.51,1656.95
685.83,1648.75
686.16,1632.45
686.48,1629.05
686.81,1632.45
687.13,1635.25
687.46,1628.2
687.78,1635.95
688.11,1614.6
688.43,1610.3
688.76,1614.25
689.08,1610.1
689.41,1600.5
689.73,1593.65
690.05,1600.25
690.38,1590.95
690.7,1593.45
691.03,1580.6
691.35,1578.15
691.68,1560.15
692.0,1563.85
692.32,1577.8
692.65,1570.65
692.97,1571.6
693.29,1566.75
693.62,1553.55
693.94,1563.2
694.27,1546.6
694.59,1524.1
694.91,1540.0
695.24,1544.85
695.56,1527.15
695.88,1529.45
696.21,1504.9
696.53,1496.75
696.85,1515.1
697.18,1516.45
697.5,1506.8
697.82,1514.2
698.15,1506.5
698.47,1503.35
698.79,1503.35
699.12,1500.65
699.44,1480.65
699.76,1477.2
700.09,1476.4
700.41,1477.6
700.73,1465.8
701.05,1474.8
701.38,1465.7
701.7,1467.9
702.02,1468.2
702.34,1457.75
702.67,1459.65
702.99,1461.45
703.31,1442.7
703.63,1450.9
703.96,1444.0
704.28,1431.7
704.6,1430.0
704.92,1437.25
705.25,1430.25
705.57,1429.15
705.89,1424.35
706.21,1424.6
706.53,1418.95
706.86,1417.15
707.18,1410.05
707.5,1421.65
707.82,1399.55
708.14,1412.85
708.46,1417.7
708.79,1394.05
709.11,1408.5
709.43,1386.45
709.75,1385.15
710.07,1384.95
710.39,1392.25
710.71,1378.95
711.04,1376.35
711.36,1372.35
711.68,1375.4
712.0,1366.25
712.32,1370.0
712.64,1357.3
712.96,1358.45
713.28,1348.2
713.6,1359.2
713.92,1340.2
714.24,1350.4
714.57,1345.75
714.89,1339.3
715.21,1339.05
715.53,1329.3
715.85,1331.6
716.17,1331.25
716.49,1331.25
716.81,1325.3
717.13,1323.55
717.45,1312.3
717.77,1308.25
718.09,1302.55
718.41,1303.9
718.73,1301.35
719.05,1294.5
719.37,1278.2
719.69,1289.3
720.01,1287.4
720.33,1275.5
720.65,1272.0
720.97,1273.05
721.29,1264.5
721.61,1269.5
721.93,1265.7
722.25,1257.65
722.57,1248.75
722.89,1244.55
723.21,1250.2
723.52,1240.75
723.84,1234.8
724.16,1244.15
724.48,1235.4
724.8,1235.95
725.12,1230.85
725.44,1228.8
725.76,1226.85
726.08,1227.3
726.4,1216.35
726.72,1223.55
727.03,1225.3
727.35,1220.7
727.67,1213.5
727.99,1209.55
728.31,1214.2
728.63,1208.95
728.95,1205.45
729.26,1198.95
729.58,1197.45
729.9,1195.25
730.22,1178.25
730.54,1181.85
730.86,1187.85
731.17,1188.75
731.49,1176.05
731.81,1187.75
732.13,1185.35
732.45,1167.55
732.76,1169.25
733.08,1170.25
733.4,1163.35
733.72,1159.65
734.03,1156.35
734.35,1156.25
734.67,1162.85
734.99,1151.0
735.3,1154.0
735.62,1151.75
735.94,1143.9
736.26,1134.7
736.57,1132.6
736.89,1141.9
737.21,1121.6
737.53,1120.2
737.84,1122.95
738.16,1110.35
738.48,1109.9
738.79,1114.85
739.11,1107.5
739.43,1097.6
739.74,1093.75
740.06,1087.4
740.38,1084.3
740.69,1081.35
741.01,1073.25
741.33,1069.0
741.64,1065.8
741.96,1066.65
742.28,1064.05
742.59,1046.25
742.91,1045.9
743.23,1042.7
743.54,1046.95
743.86,1034.35
744.17,1031.25
744.49,1033.05
744.81,1026.9
745.12,1018.95
745.44,1013.7
745.75,1014.7
746.07,1009.1
746.38,1003.75
746.7,999.25
747.02,1002.7
747.33,991.25
747.65,992.95
747.96,990.75
748.28,990.4
748.59,985.6
748.91,981.6
749.22,981.7
749.54,976.15
749.85,977.9
750.17,978.55
750.48,968.4
750.8,968.2
751.11,966.5
751.43,963.3
751.74,963.4
752.06,960.2
752.37,958.75
752.69,955.1
753.0,956.7
753.32,954.4
753.63,954.5
753.95,953.75
754.26,942.05
754.58,942.55
754.89,945.8
755.2,944.55
755.52,941.3
755.83,938.5
756.15,933.7
756.46,929.6
756.78,928.25
757.09,924.6
757.4,926.75
757.72,924.55
758.03,922.15
758.34,917.65
758.66,921.6
758.97,921.05
759.29,915.95
759.6,915.2
759.91,908.25
760.23,910.25
760.54,909.05
760.85,905.0
761.17,901.55
761.48,900.55
761.79,889.3
762.11,890.35
762.42,889.65
762.73,895.3
763.05,886.45
763.36,892.5
763.67,888.35
763.98,876.95
764.3,866.25
764.61,874.4
764.92,872.2
765.23,869.6
765.55,862.5
765.86,860.6
766.17,860.1
766.48,859.35
766.8,849.0
767.11,854.65
767.42,838.05
767.73,838.0
768.05,839.9
768.36,844.5
768.67,846.75
768.98,836.95
769.29,846.8
769.61,832.2
769.92,820.05
770.23,823.75
770.54,808.5
770.85,815.35
771.17,816.9
771.48,814.05
771.79,811.3
772.1,803.45
772.41,804.9
772.72,795.95
773.03,791.8
773.35,784.05
773.66,779.95
773.97,780.7
774.28,776.9
774.59,771.15
774.9,774.5
775.21,775.75
775.52,771.5
775.83,768.8
776.15,760.35
776.46,752.65
776.77,752.35
777.08,754.65
777.39,751.95
777.7,743.5
778.01,745.9
778.32,747.1
778.63,744.65
778.94,739.8
779.25,734.25
779.56,727.75
779.87,720.55
780.18,716.1
780.49,716.1
780.8,714.35
781.11,708.8
781.42,705.25
781.73,704.55
782.04,692.75
782.35,687.8
782.66,689.95
782.97,687.9
783.28,691.65
783.59,683.9
783.9,684.65
784.21,677.0
784.52,673.2
784.83,670.6
785.14,667.0
785.45,662.75
785.76,654.05
786.06,655.8
786.37,660.45
786.68,653.05
786.99,651.1
787.3,643.35
787.61,648.6
787.92,639.05
788.23,632.55
788.54,641.45
788.84,635.3
789.15,634.2
789.46,631.75
789.77,623.8
790.08,622.6
790.39,617.05
790.7,620.35
791.0,620.5
791.31,603.2
791.62,611.2
791.93,603.5
792.24,604.8
792.54,598.85
792.85,594.3
793.16,591.25
793.47,586.05
793.78,587.7
794.08,582.95
794.39,578.5
794.7,582.45
795.01,573.15
795.31,573.7
795.62,566.3
795.93,571.4
796.24,572.7
796.54,561.9
796.85,563.55
797.16,554.75
797.47,551.4
797.77,549.4
798.08,549.2
798.39,551.25
798.69,548.7
799.0,540.2
799.31,541.65
799.62,537.45
799.92,533.6
800.23,534.3
800.54,531.9
800.84,529.95
801.15,524.0
801.46,524.9
801.76,524.75
802.07,516.8
802.37,513.25
802.68,511.45
802.99,513.3
803.29,504.3
803.6,499.1
803.91,498.4
804.21,496.7
804.52,500.3
804.82,495.65
805.13,498.6
805.44,493.95
805.74,490.1
806.05,492.45
806.35,487.0
806.66,481.4
806.96,481.0
807.27,474.95
807.57,475.65
807.88,476.45
808.19,470.45
808.49,471.85
808.8,466.9
809.1,464.65
809.41,467.4
809.71,462.65
810.02,459.05
810.32,454.85
810.63,457.25
810.93,455.65
811.24,451.3
811.54,455.3
811.85,452.15
812.15,445.65
812.45,445.15
812.76,443.3
813.06,437.55
813.37,437.3
813.67,439.25
813.98,435.7
814.28,430.1
814.58,432.15
814.89,426.1
815.19,425.95
815.5,422.9
815.8,422.25
816.11,419.8
816.41,420.8
816.71,418.55
817.02,417.35
817.32,413.45
817.62,408.9
817.93,412.3
818.23,405.45
818.53,406.75
818.84,408.45
819.14,403.8
819.44,401.6
819.75,399.35
820.05,396.05
820.35,391.9
820.66,392.25
820.96,393.25
821.26,393.1
821.57,391.5
821.87,387.75
822.17,387.45
822.48,386.7
822.78,386.8
823.08,381.3
823.38,382.5
823.69,378.9
823.99,379.8
824.29,376.15
824.59,370.8
824.9,377.75
825.2,370.8
825.5,370.35
825.8,366.15
826.1,367.65
826.41,365.6
826.71,363.0
827.01,363.95
827.31,365.1
827.61,361.45
827.92,362.65
828.22,356.95
828.52,357.55
828.82,357.35
829.12,352.6
829.42,352.5
829.73,351.95
830.03,349.6
830.33,349.9
830.63,346.5
830.93,344.95
831.23,341.65
831.53,344.3
831.83,340.6
832.14,338.0
832.44,339.8
832.74,335.5
833.04,335.7
833.34,337.9
833.64,331.95
833.94,328.9
834.24,330.5
834.54,332.8
834.84,328.8
835.14,325.65
835.44,327.1
835.74,322.95
836.04,320.6
836.34,323.1
836.64,321.85
836.95,322.65
837.25,317.15
837.55,318.75
837.85,317.05
838.15,318.6
838.45,314.75
838.74,313.15
839.04,308.95
839.34,309.8
839.64,306.15
839.94,306.15
840.24,306.8
840.54,308.8
840.84,306.95
841.14,302.45
841.44,301.55
841.74,301.8
842.04,300.5
842.34,299.6
842.64,297.5
842.94,299.85
843.24,297.2
843.53,296.0
843.83,292.1
844.13,292.25
844.43,289.1
844.73,290.55
845.03,288.65
845.33,285.9
845.63,285.05
845.92,287.65
846.22,286.0
846.52,283.55
846.82,284.5
847.12,281.25
847.42,283.2
847.71,279.5
848.01,278.65
848.31,275.95
848.61,274.9
848.91,274.35
849.2,275.6
849.5,275.15
849.8,275.65
850.1,272.6
850.39,267.8
850.69,270.1
850.99,268.7
851.29,266.05
851.59,267.2
851.88,263.95
852.18,263.35
852.48,264.0
852.77,260.3
853.07,262.2
853.37,258.6
853.67,258.8
853.96,257.15
854.26,256.95
854.56,255.75
854.85,253.95
855.15,252.5
855.45,253.4
855.74,251.6
856.04,250.2
856.34,248.65
856.63,251.4
856.93,246.35
857.23,246.5
857.52,243.35
857.82,244.25
858.11,244.2
858.41,243.7
858.71,241.25
859.0,239.85
859.3,240.55
859.59,240.2
859.89,239.05
860.19,234.15
860.48,234.95
860.78,235.05
861.07,236.75
861.37,233.6
861.66,233.25
861.96,231.45
862.26,229.35
862.55,230.4
862.85,227.9
863.14,227.4
863.44,225.0
863.73,225.2
864.03,224.0
864.32,224.0
864.62,221.3
864.91,221.55
865.21,218.55
865.5,216.85
865.8,219.75
866.09,218.45
866.39,217.05
866.68,215.15
866.97,212.75
867.27,214.9
867.56,211.8
867.86,212.55
868.15,211.25
868.45,206.15
868.74,207.95
869.03,208.15
869.33,206.9
869.62,204.8
869.92,204.5
870.21,200.7
870.5,200.6
870.8,200.45
871.09,199.65
871.39,199.35
871.68,198.0
871.97,196.4
872.27,196.3
872.56,193.55
872.85,193.9
873.15,193.7
873.44,191.05
873.73,192.25
874.03,189.85
874.32,188.85
874.61,188.15
874.9,189.35
875.2,186.7
875.49,185.35
875.78,183.25
