Wavelength,Intensity
179.38,0.0
179.75,57.0
180.13,51.0
180.51,56.0
180.88,61.0
181.26,59.0
181.64,59.0
182.02,58.0
182.39,61.0
182.77,57.0
183.15,59.0
183.52,60.0
183.90,62.0
184.28,54.0
184.65,59.0
185.03,62.0
185.41,59.0
185.78,58.0
186.16,57.0
186.53,51.0
186.91,52.0
187.29,59.0
187.66,59.0
188.04,60.0
188.42,56.0
188.79,60.0
189.17,57.0
189.55,54.0
189.92,56.0
190.30,56.0
190.67,57.0
191.05,55.0
191.43,52.0
191.80,55.0
192.18,55.0
192.56,54.0
192.93,55.0
193.31,58.0
193.68,56.0
194.06,60.0
194.44,57.0
194.81,55.0
195.19,59.0
195.56,58.0
195.94,59.0
196.32,56.0
196.69,57.0
197.07,58.0
197.44,54.0
197.82,55.0
198.19,56.0
198.57,57.0
198.95,55.0
199.32,57.0
199.70,59.0
200.07,56.0
200.45,53.0
200.82,58.0
201.20,60.0
201.57,58.0
201.95,58.0
202.33,65.0
202.70,56.0
203.08,56.0
203.45,59.0
203.83,52.0
204.20,58.0
204.58,56.0
204.95,57.0
205.33,58.0
205.70,58.0
206.08,56.0
206.45,56.0
206.83,59.0
207.20,58.0
207.58,54.0
207.95,55.0
208.33,62.0
208.70,61.0
209.08,60.0
209.45,58.0
209.83,54.0
210.20,57.0
210.58,61.0
210.95,58.0
211.33,57.0
211.70,59.0
212.08,59.0
212.45,56.0
212.83,55.0
213.20,62.0
213.58,62.0
213.95,62.0
214.33,58.0
214.70,57.0
215.07,58.0
215.45,58.0
215.82,59.0
216.20,55.0
216.57,57.0
216.95,61.0
217.32,59.0
217.70,59.0
218.07,55.0
218.44,58.0
218.82,56.0
219.19,60.0
219.57,57.0
219.94,60.0
220.32,55.0
220.69,57.0
221.06,54.0
221.44,58.0
221.81,59.0
222.19,58.0
222.56,62.0
222.93,58.0
223.31,60.0
223.68,59.0
224.06,56.0
224.43,60.0
224.80,57.0
225.18,59.0
225.55,59.0
225.92,59.0
226.30,60.0
226.67,58.0
227.05,56.0
227.42,59.0
227.79,55.0
228.17,57.0
228.54,61.0
228.91,59.0
229.29,58.0
229.66,55.0
230.03,56.0
230.41,56.0
230.78,57.0
231.15,56.0
231.53,59.0
231.90,53.0
232.27,54.0
232.65,57.0
233.02,55.0
233.39,60.0
233.77,58.0
234.14,59.0
234.51,57.0
234.89,54.0
235.26,62.0
235.63,60.0
236.01,56.0
236.38,59.0
236.75,61.0
237.12,59.0
237.50,58.0
237.87,57.0
238.24,56.0
238.62,57.0
238.99,62.0
239.36,56.0
239.73,62.0
240.11,59.0
240.48,62.0
240.85,57.0
241.23,58.0
241.60,57.0
241.97,63.0
242.34,62.0
242.72,57.0
243.09,54.0
243.46,57.0
243.83,56.0
244.21,61.0
244.58,59.0
244.95,53.0
245.32,58.0
245.70,53.0
246.07,56.0
246.44,59.0
246.81,55.0
247.18,54.0
247.56,58.0
247.93,58.0
248.30,56.0
248.67,56.0
249.04,56.0
249.42,56.0
249.79,60.0
250.16,58.0
250.53,56.0
250.90,55.0
251.28,54.0
251.65,54.0
252.02,57.0
252.39,58.0
252.76,56.0
253.14,61.0
253.51,61.0
253.88,61.0
254.25,58.0
254.62,60.0
254.99,57.0
255.37,57.0
255.74,56.0
256.11,51.0
256.48,54.0
256.85,58.0
257.22,56.0
257.59,56.0
257.97,56.0
258.34,58.0
258.71,55.0
259.08,58.0
259.45,56.0
259.82,59.0
260.19,56.0
260.56,54.0
260.94,61.0
261.31,60.0
261.68,62.0
262.05,62.0
262.42,55.0
262.79,64.0
263.16,60.0
263.53,59.0
263.90,63.0
264.28,61.0
264.65,52.0
265.02,56.0
265.39,56.0
265.76,55.0
266.13,57.0
266.50,57.0
266.87,58.0
267.24,59.0
267.61,60.0
267.98,56.0
268.35,53.0
268.72,57.0
269.09,55.0
269.46,56.0
269.84,60.0
270.21,56.0
270.58,59.0
270.95,63.0
271.32,54.0
271.69,58.0
272.06,57.0
272.43,59.0
272.80,53.0
273.17,57.0
273.54,61.0
273.91,55.0
274.28,59.0
274.65,57.0
275.02,59.0
275.39,51.0
275.76,59.0
276.13,58.0
276.50,55.0
276.87,56.0
277.24,55.0
277.61,60.0
277.98,57.0
278.35,63.0
278.72,56.0
279.09,59.0
279.46,59.0
279.83,54.0
280.20,55.0
280.57,55.0
280.94,56.0
281.31,56.0
281.67,61.0
282.04,61.0
282.41,58.0
282.78,56.0
283.15,55.0
283.52,56.0
283.89,57.0
284.26,59.0
284.63,60.0
285.00,57.0
285.37,60.0
285.74,58.0
286.11,56.0
286.48,58.0
286.85,57.0
287.21,59.0
287.58,58.0
287.95,57.0
288.32,56.0
288.69,54.0
289.06,52.0
289.43,56.0
289.80,60.0
290.17,55.0
290.54,56.0
290.90,55.0
291.27,57.0
291.64,57.0
292.01,58.0
292.38,59.0
292.75,60.0
293.12,57.0
293.48,57.0
293.85,57.0
294.22,61.0
294.59,61.0
294.96,58.0
295.33,56.0
295.70,58.0
296.06,52.0
296.43,59.0
296.80,54.0
297.17,59.0
297.54,57.0
297.91,58.0
298.27,59.0
298.64,60.0
299.01,59.0
299.38,57.0
299.75,57.0
300.11,57.0
300.48,60.0
300.85,58.0
301.22,52.0
301.59,62.0
301.95,54.0
302.32,57.0
302.69,62.0
303.06,58.0
303.43,58.0
303.79,58.0
304.16,57.0
304.53,63.0
304.90,54.0
305.26,63.0
305.63,58.0
306.00,58.0
306.37,58.0
306.73,57.0
307.10,58.0
307.47,55.0
307.84,58.0
308.20,59.0
308.57,57.0
308.94,63.0
309.31,59.0
309.67,58.0
310.04,58.0
310.41,54.0
310.77,55.0
311.14,54.0
311.51,53.0
311.88,63.0
312.24,62.0
312.61,62.0
312.98,57.0
313.34,57.0
313.71,57.0
314.08,58.0
314.44,59.0
314.81,56.0
315.18,57.0
315.55,54.0
315.91,57.0
316.28,56.0
316.65,61.0
317.01,55.0
317.38,53.0
317.75,61.0
318.11,58.0
318.48,53.0
318.84,59.0
319.21,60.0
319.58,57.0
319.94,56.0
320.31,54.0
320.68,57.0
321.04,59.0
321.41,59.0
321.78,58.0
322.14,55.0
322.51,60.0
322.87,57.0
323.24,58.0
323.61,58.0
323.97,57.0
324.34,57.0
324.70,59.0
325.07,60.0
325.44,57.0
325.80,56.0
326.17,60.0
326.53,54.0
326.90,59.0
327.27,59.0
327.63,56.0
328.00,57.0
328.36,55.0
328.73,60.0
329.09,61.0
329.46,57.0
329.83,57.0
330.19,64.0
330.56,56.0
330.92,55.0
331.29,55.0
331.65,53.0
332.02,52.0
332.38,55.0
332.75,55.0
333.11,55.0
333.48,56.0
333.84,59.0
334.21,55.0
334.58,54.0
334.94,61.0
335.31,59.0
335.67,60.0
336.04,57.0
336.40,56.0
336.77,59.0
337.13,60.0
337.50,57.0
337.86,56.0
338.22,59.0
338.59,58.0
338.95,58.0
339.32,60.0
339.68,56.0
340.05,58.0
340.41,55.0
340.78,55.0
341.14,58.0
341.51,59.0
341.87,58.0
342.24,59.0
342.60,57.0
342.96,57.0
343.33,57.0
343.69,61.0
344.06,55.0
344.42,58.0
344.79,59.0
345.15,60.0
345.51,61.0
345.88,56.0
346.24,62.0
346.61,57.0
346.97,61.0
347.34,60.0
347.70,61.0
348.06,59.0
348.43,57.0
348.79,59.0
349.16,59.0
349.52,56.0
349.88,54.0
350.25,54.0
350.61,61.0
350.97,57.0
351.34,57.0
351.70,53.0
352.07,55.0
352.43,58.0
352.79,55.0
353.16,55.0
353.52,61.0
353.88,56.0
354.25,58.0
354.61,58.0
354.97,53.0
355.34,62.0
355.70,62.0
356.06,57.0
356.43,56.0
356.79,56.0
357.15,56.0
357.52,59.0
357.88,57.0
358.24,57.0
358.60,56.0
358.97,56.0
359.33,58.0
359.69,60.0
360.06,57.0
360.42,58.0
360.78,62.0
361.14,58.0
361.51,61.0
361.87,54.0
362.23,61.0
362.60,61.0
362.96,61.0
363.32,59.0
363.68,59.0
364.05,52.0
364.41,61.0
364.77,54.0
365.13,55.0
365.50,59.0
365.86,58.0
366.22,55.0
366.58,58.0
366.95,57.0
367.31,58.0
367.67,54.0
368.03,54.0
368.39,57.0
368.76,57.0
369.12,55.0
369.48,59.0
369.84,54.0
370.20,59.0
370.57,62.0
370.93,56.0
371.29,54.0
371.65,53.0
372.01,56.0
372.38,52.0
372.74,56.0
373.10,64.0
373.46,57.0
373.82,59.0
374.18,58.0
374.55,57.0
374.91,60.0
375.27,52.0
375.63,58.0
375.99,57.0
376.35,58.0
376.71,55.0
377.08,60.0
377.44,57.0
377.80,58.0
378.16,57.0
378.52,59.0
378.88,56.0
379.24,62.0
379.60,58.0
379.97,56.0
380.33,55.0
380.69,53.0
381.05,59.0
381.41,50.0
381.77,58.0
382.13,60.0
382.49,55.0
382.85,61.0
383.21,61.0
383.57,61.0
383.94,55.0
384.30,64.0
384.66,52.0
385.02,60.0
385.38,61.0
385.74,57.0
386.10,60.0
386.46,59.0
386.82,57.0
387.18,59.0
387.54,60.0
387.90,56.0
388.26,57.0
388.62,54.0
388.98,57.0
389.34,63.0
389.70,58.0
390.06,55.0
390.42,61.0
390.78,60.0
391.14,58.0
391.50,59.0
391.86,52.0
392.22,60.0
392.58,60.0
392.94,57.0
393.30,60.0
393.66,57.0
394.02,58.0
394.38,59.0
394.74,55.0
395.10,57.0
395.46,62.0
395.82,57.0
396.18,59.0
396.54,55.0
396.90,58.0
397.26,61.0
397.62,57.0
397.98,60.0
398.34,61.0
398.70,57.0
399.05,60.0
399.41,59.0
399.77,59.0
400.13,56.0
400.49,60.0
400.85,54.0
401.21,55.0
401.57,54.0
401.93,62.0
402.29,63.0
402.65,59.0
403.00,61.0
403.36,58.0
403.72,55.0
404.08,63.0
404.44,59.0
404.80,60.0
405.16,58.0
405.52,54.0
405.87,56.0
406.23,63.0
406.59,59.0
406.95,57.0
407.31,58.0
407.67,56.0
408.03,54.0
408.38,57.0
408.74,56.0
409.10,57.0
409.46,60.0
409.82,60.0
410.17,58.0
410.53,55.0
410.89,57.0
411.25,55.0
411.61,53.0
411.97,57.0
412.32,59.0
412.68,57.0
413.04,58.0
413.40,59.0
413.75,58.0
414.11,57.0
414.47,57.0
414.83,60.0
415.19,57.0
415.54,57.0
415.90,54.0
416.26,60.0
416.62,58.0
416.97,61.0
417.33,56.0
417.69,55.0
418.05,59.0
418.40,62.0
418.76,59.0
419.12,55.0
419.48,61.0
419.83,60.0
420.19,60.0
420.55,58.0
420.90,60.0
421.26,60.0
421.62,56.0
421.98,61.0
422.33,58.0
422.69,63.0
423.05,57.0
423.40,58.0
423.76,57.0
424.12,59.0
424.47,60.0
424.83,56.0
425.19,56.0
425.54,60.0
425.90,61.0
426.26,59.0
426.61,56.0
426.97,55.0
427.33,59.0
427.68,60.0
428.04,57.0
428.40,60.0
428.75,61.0
429.11,60.0
429.47,56.0
429.82,61.0
430.18,57.0
430.53,55.0
430.89,58.0
431.25,55.0
431.60,62.0
431.96,57.0
432.31,65.0
432.67,65.0
433.03,59.0
433.38,62.0
433.74,59.0
434.09,53.0
434.45,61.0
434.81,60.0
435.16,59.0
435.52,59.0
435.87,59.0
436.23,60.0
436.58,58.0
436.94,60.0
437.30,58.0
437.65,63.0
438.01,56.0
438.36,53.0
438.72,56.0
439.07,59.0
439.43,58.0
439.78,61.0
440.14,55.0
440.49,53.0
440.85,62.0
441.20,58.0
441.56,56.0
441.91,53.0
442.27,54.0
442.62,55.0
442.98,53.0
443.33,60.0
443.69,54.0
444.04,60.0
444.40,56.0
444.75,62.0
445.11,58.0
445.46,58.0
445.82,61.0
446.17,61.0
446.53,58.0
446.88,58.0
447.23,57.0
447.59,65.0
447.94,59.0
448.30,53.0
448.65,58.0
449.01,59.0
449.36,56.0
449.72,56.0
450.07,59.0
450.42,56.0
450.78,57.0
451.13,58.0
451.49,55.0
451.84,59.0
452.19,56.0
452.55,58.0
452.90,60.0
453.26,59.0
453.61,63.0
453.96,54.0
454.32,61.0
454.67,59.0
455.02,59.0
455.38,61.0
455.73,61.0
456.09,57.0
456.44,62.0
456.79,59.0
457.15,58.0
457.50,57.0
457.85,54.0
458.21,61.0
458.56,61.0
458.91,59.0
459.27,59.0
459.62,62.0
459.97,59.0
460.32,62.0
460.68,58.0
461.03,55.0
461.38,56.0
461.74,59.0
462.09,63.0
462.44,57.0
462.80,56.0
463.15,61.0
463.50,60.0
463.85,53.0
464.21,55.0
464.56,57.0
464.91,58.0
465.26,59.0
465.62,61.0
465.97,58.0
466.32,56.0
466.67,60.0
467.03,58.0
467.38,59.0
467.73,55.0
468.08,65.0
468.44,58.0
468.79,57.0
469.14,61.0
469.49,62.0
469.85,60.0
470.20,60.0
470.55,55.0
470.90,58.0
471.25,59.0
471.61,58.0
471.96,63.0
472.31,59.0
472.66,58.0
473.01,58.0
473.36,56.0
473.72,60.0
474.07,55.0
474.42,57.0
474.77,63.0
475.12,63.0
475.47,56.0
475.83,56.0
476.18,61.0
476.53,61.0
476.88,60.0
477.23,54.0
477.58,57.0
477.93,58.0
478.28,59.0
478.64,60.0
478.99,55.0
479.34,61.0
479.69,62.0
480.04,58.0
480.39,58.0
480.74,58.0
481.09,54.0
481.44,60.0
481.79,58.0
482.15,61.0
482.50,59.0
482.85,59.0
483.20,54.0
483.55,59.0
483.90,59.0
484.25,62.0
484.60,57.0
484.95,60.0
485.30,54.0
485.65,59.0
486.00,56.0
486.35,63.0
486.70,59.0
487.05,61.0
487.40,62.0
487.75,58.0
488.10,56.0
488.45,59.0
488.80,57.0
489.15,57.0
489.50,56.0
489.85,57.0
490.20,61.0
490.55,60.0
490.90,58.0
491.25,60.0
491.60,59.0
491.95,60.0
492.30,57.0
492.65,56.0
493.00,57.0
493.35,56.0
493.70,60.0
494.05,59.0
494.40,58.0
494.75,58.0
495.10,58.0
495.45,54.0
495.80,58.0
496.15,59.0
496.50,57.0
496.84,60.0
497.19,61.0
497.54,58.0
497.89,59.0
498.24,58.0
498.59,56.0
498.94,58.0
499.29,60.0
499.64,57.0
499.99,56.0
500.33,58.0
500.68,59.0
501.03,55.0
501.38,55.0
501.73,56.0
502.08,53.0
502.43,59.0
502.77,57.0
503.12,61.0
503.47,63.0
503.82,64.0
504.17,53.0
504.52,60.0
504.86,59.0
505.21,59.0
505.56,60.0
505.91,59.0
506.26,58.0
506.61,59.0
506.95,58.0
507.30,63.0
507.65,59.0
508.00,61.0
508.35,56.0
508.69,56.0
509.04,57.0
509.39,57.0
509.74,62.0
510.08,61.0
510.43,57.0
510.78,56.0
511.13,56.0
511.47,58.0
511.82,59.0
512.17,59.0
512.52,56.0
512.86,56.0
513.21,56.0
513.56,60.0
513.91,60.0
514.25,58.0
514.60,59.0
514.95,58.0
515.30,62.0
515.64,53.0
515.99,61.0
516.34,61.0
516.68,61.0
517.03,57.0
517.38,55.0
517.72,59.0
518.07,59.0
518.42,60.0
518.76,61.0
519.11,55.0
519.46,63.0
519.80,59.0
520.15,59.0
520.50,56.0
520.84,55.0
521.19,58.0
521.54,58.0
521.88,63.0
522.23,57.0
522.58,58.0
522.92,59.0
523.27,57.0
523.61,59.0
523.96,57.0
524.31,61.0
524.65,54.0
525.00,57.0
525.34,57.0
525.69,58.0
526.04,60.0
526.38,63.0
526.73,59.0
527.07,59.0
527.42,57.0
527.76,56.0
528.11,57.0
528.46,61.0
528.80,57.0
529.15,65.0
529.49,59.0
529.84,57.0
530.18,59.0
530.53,62.0
530.87,54.0
531.22,56.0
531.56,57.0
531.91,62.0
532.25,63.0
532.60,56.0
532.94,61.0
533.29,57.0
533.63,62.0
533.98,59.0
534.32,59.0
534.67,58.0
535.01,55.0
535.36,60.0
535.70,63.0
536.05,61.0
536.39,62.0
536.74,56.0
537.08,57.0
537.43,53.0
537.77,60.0
538.12,62.0
538.46,55.0
538.80,60.0
539.15,61.0
539.49,57.0
539.84,55.0
540.18,58.0
540.53,54.0
540.87,55.0
541.21,60.0
541.56,63.0
541.90,60.0
542.25,62.0
542.59,60.0
542.93,58.0
543.28,60.0
543.62,57.0
543.97,58.0
544.31,57.0
544.65,58.0
545.00,62.0
545.34,60.0
545.68,61.0
546.03,59.0
546.37,54.0
546.71,59.0
547.06,61.0
547.40,60.0
547.74,56.0
548.09,62.0
548.43,59.0
548.77,59.0
549.12,60.0
549.46,60.0
549.80,60.0
550.15,52.0
550.49,57.0
550.83,56.0
551.17,58.0
551.52,60.0
551.86,62.0
552.20,55.0
552.55,59.0
552.89,59.0
553.23,54.0
553.57,58.0
553.92,60.0
554.26,61.0
554.60,58.0
554.94,54.0
555.29,58.0
555.63,57.0
555.97,58.0
556.31,55.0
556.66,60.0
557.00,55.0
557.34,58.0
557.68,61.0
558.02,56.0
558.37,63.0
558.71,56.0
559.05,59.0
559.39,55.0
559.73,57.0
560.08,58.0
560.42,59.0
560.76,60.0
561.10,53.0
561.44,59.0
561.78,58.0
562.13,56.0
562.47,58.0
562.81,56.0
563.15,56.0
563.49,56.0
563.83,61.0
564.17,63.0
564.52,60.0
564.86,54.0
565.20,61.0
565.54,61.0
565.88,58.0
566.22,59.0
566.56,57.0
566.90,59.0
567.24,56.0
567.59,59.0
567.93,57.0
568.27,60.0
568.61,60.0
568.95,56.0
569.29,58.0
569.63,55.0
569.97,61.0
570.31,56.0
570.65,58.0
570.99,60.0
571.33,56.0
571.67,59.0
572.01,60.0
572.35,60.0
572.69,62.0
573.03,62.0
573.37,58.0
573.71,57.0
574.05,55.0
574.39,60.0
574.73,60.0
575.07,56.0
575.41,59.0
575.75,55.0
576.09,57.0
576.43,52.0
576.77,59.0
577.11,58.0
577.45,61.0
577.79,55.0
578.13,57.0
578.47,57.0
578.81,52.0
579.15,55.0
579.49,57.0
579.83,58.0
580.17,55.0
580.51,59.0
580.85,61.0
581.19,55.0
581.53,60.0
581.87,52.0
582.20,59.0
582.54,61.0
582.88,56.0
583.22,61.0
583.56,62.0
583.90,65.0
584.24,60.0
584.58,61.0
584.92,61.0
585.25,56.0
585.59,60.0
585.93,57.0
586.27,61.0
586.61,61.0
586.95,53.0
587.29,57.0
587.62,52.0
587.96,56.0
588.30,60.0
588.64,57.0
588.98,56.0
589.31,55.0
589.65,57.0
589.99,57.0
590.33,55.0
590.67,56.0
591.01,60.0
591.34,58.0
591.68,63.0
592.02,59.0
592.36,60.0
592.69,61.0
593.03,55.0
593.37,64.0
593.71,61.0
594.04,59.0
594.38,59.0
594.72,59.0
595.06,56.0
595.39,57.0
595.73,56.0
596.07,59.0
596.41,55.0
596.74,60.0
597.08,57.0
597.42,59.0
597.76,58.0
598.09,55.0
598.43,58.0
598.77,54.0
599.10,58.0
599.44,59.0
599.78,56.0
600.11,63.0
600.45,58.0
600.79,57.0
601.12,57.0
601.46,57.0
601.80,57.0
602.13,56.0
602.47,64.0
602.81,59.0
603.14,60.0
603.48,59.0
603.82,56.0
604.15,54.0
604.49,57.0
604.82,58.0
605.16,62.0
605.50,56.0
605.83,61.0
606.17,57.0
606.50,56.0
606.84,60.0
607.18,56.0
607.51,60.0
607.85,61.0
608.18,60.0
608.52,57.0
608.86,60.0
609.19,62.0
609.53,55.0
609.86,56.0
610.20,57.0
610.53,56.0
610.87,57.0
611.20,59.0
611.54,60.0
611.87,56.0
612.21,57.0
612.54,60.0
612.88,59.0
613.21,59.0
613.55,54.0
613.88,60.0
614.22,60.0
614.55,60.0
614.89,64.0
615.22,57.0
615.56,53.0
615.89,55.0
616.23,57.0
616.56,61.0
616.90,56.0
617.23,60.0
617.57,60.0
617.90,53.0
618.24,60.0
618.57,57.0
618.90,57.0
619.24,58.0
619.57,64.0
619.91,56.0
620.24,58.0
620.58,60.0
620.91,57.0
621.24,60.0
621.58,58.0
621.91,55.0
622.25,59.0
622.58,55.0
622.91,56.0
623.25,61.0
623.58,61.0
623.91,59.0
624.25,61.0
624.58,61.0
624.92,56.0
625.25,62.0
625.58,57.0
625.92,59.0
626.25,63.0
626.58,57.0
626.92,59.0
627.25,60.0
627.58,61.0
627.91,57.0
628.25,57.0
628.58,56.0
628.91,59.0
629.25,58.0
629.58,58.0
629.91,60.0
630.25,62.0
630.58,60.0
630.91,60.0
631.24,59.0
631.58,56.0
631.91,60.0
632.24,59.0
632.57,63.0
632.91,63.0
633.24,60.0
633.57,59.0
633.90,59.0
634.24,59.0
634.57,60.0
634.90,62.0
635.23,59.0
635.56,55.0
635.90,58.0
636.23,56.0
636.56,59.0
636.89,56.0
637.22,59.0
637.56,63.0
637.89,61.0
638.22,57.0
638.55,54.0
638.88,63.0
639.21,60.0
639.55,60.0
639.88,59.0
640.21,52.0
640.54,60.0
640.87,59.0
641.20,60.0
641.53,56.0
641.87,57.0
642.20,60.0
642.53,57.0
642.86,53.0
643.19,59.0
643.52,60.0
643.85,60.0
644.18,57.0
644.51,63.0
644.84,59.0
645.18,57.0
645.51,57.0
645.84,59.0
646.17,57.0
646.50,57.0
646.83,58.0
647.16,57.0
647.49,56.0
647.82,59.0
648.15,58.0
648.48,57.0
648.81,60.0
649.14,57.0
649.47,58.0
649.80,55.0
650.13,59.0
650.46,56.0
650.79,60.0
651.12,59.0
651.45,57.0
651.78,59.0
652.11,58.0
652.44,60.0
652.77,59.0
653.10,59.0
653.43,56.0
653.76,55.0
654.09,63.0
654.42,61.0
654.75,59.0
655.08,57.0
655.41,54.0
655.74,54.0
656.07,54.0
656.39,57.0
656.72,59.0
657.05,58.0
657.38,59.0
657.71,57.0
658.04,62.0
658.37,58.0
658.70,58.0
659.03,61.0
659.36,59.0
659.68,60.0
660.01,59.0
660.34,56.0
660.67,57.0
661.00,58.0
661.33,58.0
661.66,56.0
661.98,55.0
662.31,56.0
662.64,55.0
662.97,60.0
663.30,54.0
663.63,59.0
663.95,57.0
664.28,57.0
664.61,61.0
664.94,58.0
665.27,59.0
665.59,53.0
665.92,55.0
666.25,55.0
666.58,60.0
666.91,59.0
667.23,59.0
667.56,56.0
667.89,54.0
668.22,55.0
668.54,58.0
668.87,58.0
669.20,54.0
669.53,60.0
669.85,58.0
670.18,56.0
670.51,61.0
670.83,53.0
671.16,57.0
671.49,59.0
671.82,58.0
672.14,60.0
672.47,63.0
672.80,62.0
673.12,57.0
673.45,59.0
673.78,60.0
674.10,57.0
674.43,57.0
674.76,52.0
675.08,59.0
675.41,55.0
675.74,62.0
676.06,55.0
676.39,60.0
676.72,54.0
677.04,59.0
677.37,55.0
677.69,61.0
678.02,59.0
678.35,59.0
678.67,56.0
679.00,59.0
679.32,58.0
679.65,57.0
679.98,60.0
680.30,60.0
680.63,56.0
680.95,59.0
681.28,58.0
681.60,57.0
681.93,59.0
682.26,59.0
682.58,58.0
682.91,59.0
683.23,59.0
683.56,58.0
683.88,61.0
684.21,57.0
684.53,59.0
684.86,55.0
685.18,57.0
685.51,60.0
685.83,61.0
686.16,60.0
686.48,60.0
686.81,61.0
687.13,61.0
687.46,58.0
687.78,62.0
688.11,61.0
688.43,57.0
688.76,54.0
689.08,59.0
689.41,63.0
689.73,63.0
690.05,58.0
690.38,57.0
690.70,60.0
691.03,61.0
691.35,57.0
691.68,60.0
692.00,56.0
692.32,61.0
692.65,57.0
692.97,56.0
693.29,56.0
693.62,56.0
693.94,59.0
694.27,56.0
694.59,54.0
694.91,59.0
695.24,59.0
695.56,56.0
695.88,57.0
696.21,59.0
696.53,60.0
696.85,56.0
697.18,57.0
697.50,59.0
697.82,58.0
698.15,61.0
698.47,55.0
698.79,56.0
699.12,58.0
699.44,56.0
699.76,58.0
700.09,55.0
700.41,57.0
700.73,55.0
701.05,58.0
701.38,57.0
701.70,56.0
702.02,59.0
702.34,57.0
702.67,58.0
702.99,57.0
703.31,62.0
703.63,57.0
703.96,63.0
704.28,60.0
704.60,59.0
704.92,58.0
705.25,61.0
705.57,61.0
705.89,60.0
706.21,58.0
706.53,57.0
706.86,58.0
707.18,51.0
707.50,58.0
707.82,57.0
708.14,59.0
708.46,60.0
708.79,54.0
709.11,58.0
709.43,59.0
709.75,60.0
710.07,60.0
710.39,57.0
710.71,63.0
711.04,55.0
711.36,58.0
711.68,61.0
712.00,60.0
712.32,57.0
712.64,59.0
712.96,59.0
713.28,58.0
713.60,56.0
713.92,64.0
714.24,58.0
714.57,57.0
714.89,55.0
715.21,58.0
715.53,53.0
715.85,57.0
716.17,62.0
716.49,61.0
716.81,57.0
717.13,51.0
717.45,59.0
717.77,57.0
718.09,55.0
718.41,55.0
718.73,61.0
719.05,60.0
719.37,62.0
719.69,58.0
720.01,56.0
720.33,60.0
720.65,58.0
720.97,61.0
721.29,62.0
721.61,54.0
721.93,58.0
722.25,60.0
722.57,55.0
722.89,58.0
723.21,60.0
723.52,60.0
723.84,55.0
724.16,57.0
724.48,54.0
724.80,61.0
725.12,56.0
725.44,57.0
725.76,63.0
726.08,59.0
726.40,57.0
726.72,58.0
727.03,56.0
727.35,56.0
727.67,58.0
727.99,60.0
728.31,59.0
728.63,59.0
728.95,58.0
729.26,55.0
729.58,62.0
729.90,58.0
730.22,54.0
730.54,56.0
730.86,59.0
731.17,52.0
731.49,55.0
731.81,59.0
732.13,56.0
732.45,57.0
732.76,59.0
733.08,58.0
733.40,56.0
733.72,59.0
734.03,58.0
734.35,53.0
734.67,56.0
734.99,60.0
735.30,61.0
735.62,57.0
735.94,60.0
736.26,60.0
736.57,54.0
736.89,54.0
737.21,58.0
737.53,60.0
737.84,58.0
738.16,61.0
738.48,59.0
738.79,59.0
739.11,54.0
739.43,55.0
739.74,59.0
740.06,59.0
740.38,56.0
740.69,59.0
741.01,61.0
741.33,57.0
741.64,55.0
741.96,52.0
742.28,58.0
742.59,60.0
742.91,55.0
743.23,54.0
743.54,56.0
743.86,54.0
744.17,54.0
744.49,59.0
744.81,59.0
745.12,61.0
745.44,58.0
745.75,58.0
746.07,62.0
746.38,61.0
746.70,60.0
747.02,62.0
747.33,61.0
747.65,58.0
747.96,52.0
748.28,55.0
748.59,57.0
748.91,57.0
749.22,56.0
749.54,60.0
749.85,62.0
750.17,58.0
750.48,62.0
750.80,62.0
751.11,60.0
751.43,59.0
751.74,59.0
752.06,60.0
752.37,56.0
752.69,56.0
753.00,58.0
753.32,57.0
753.63,58.0
753.95,53.0
754.26,58.0
754.58,58.0
754.89,58.0
755.20,61.0
755.52,55.0
755.83,56.0
756.15,61.0
756.46,61.0
756.78,58.0
757.09,55.0
757.40,56.0
757.72,61.0
758.03,56.0
758.34,57.0
758.66,56.0
758.97,56.0
759.29,59.0
759.60,57.0
759.91,53.0
760.23,55.0
760.54,58.0
760.85,62.0
761.17,56.0
761.48,60.0
761.79,61.0
762.11,59.0
762.42,57.0
762.73,59.0
763.05,60.0
763.36,60.0
763.67,61.0
763.98,61.0
764.30,57.0
764.61,59.0
764.92,56.0
765.23,56.0
765.55,55.0
765.86,52.0
766.17,53.0
766.48,58.0
766.80,56.0
767.11,55.0
767.42,59.0
767.73,56.0
768.05,55.0
768.36,57.0
768.67,61.0
768.98,57.0
769.29,56.0
769.61,53.0
769.92,58.0
770.23,61.0
770.54,60.0
770.85,54.0
771.17,57.0
771.48,56.0
771.79,56.0
772.10,54.0
772.41,60.0
772.72,60.0
773.03,59.0
773.35,57.0
773.66,53.0
773.97,59.0
774.28,60.0
774.59,55.0
774.90,58.0
775.21,59.0
775.52,53.0
775.83,55.0
776.15,59.0
776.46,58.0
776.77,60.0
777.08,56.0
777.39,59.0
777.70,56.0
778.01,58.0
778.32,56.0
778.63,60.0
778.94,57.0
779.25,62.0
779.56,63.0
779.87,55.0
780.18,58.0
780.49,60.0
780.80,59.0
781.11,60.0
781.42,60.0
781.73,61.0
782.04,57.0
782.35,59.0
782.66,54.0
782.97,59.0
783.28,62.0
783.59,63.0
783.90,55.0
784.21,59.0
784.52,57.0
784.83,57.0
785.14,60.0
785.45,58.0
785.76,58.0
786.06,60.0
786.37,58.0
786.68,60.0
786.99,63.0
787.30,58.0
787.61,60.0
787.92,59.0
788.23,61.0
788.54,57.0
788.84,60.0
789.15,54.0
789.46,56.0
789.77,59.0
790.08,55.0
790.39,58.0
790.70,54.0
791.00,59.0
791.31,50.0
791.62,59.0
791.93,59.0
792.24,62.0
792.54,55.0
792.85,59.0
793.16,56.0
793.47,62.0
793.78,59.0
794.08,58.0
794.39,58.0
794.70,55.0
795.01,58.0
795.31,60.0
795.62,63.0
795.93,57.0
796.24,59.0
796.54,60.0
796.85,58.0
797.16,56.0
797.47,60.0
797.77,54.0
798.08,58.0
798.39,58.0
798.69,57.0
799.00,55.0
799.31,53.0
799.62,55.0
799.92,53.0
800.23,57.0
800.54,57.0
800.84,57.0
801.15,56.0
801.46,58.0
801.76,62.0
802.07,54.0
802.37,58.0
802.68,57.0
802.99,60.0
803.29,55.0
803.60,59.0
803.91,54.0
804.21,53.0
804.52,60.0
804.82,62.0
805.13,60.0
805.44,59.0
805.74,58.0
806.05,56.0
806.35,57.0
806.66,55.0
806.96,59.0
807.27,61.0
807.57,60.0
807.88,56.0
808.19,58.0
808.49,59.0
808.80,55.0
809.10,59.0
809.41,59.0
809.71,60.0
810.02,58.0
810.32,59.0
810.63,62.0
810.93,62.0
811.24,55.0
811.54,59.0
811.85,57.0
812.15,54.0
812.45,57.0
812.76,57.0
813.06,59.0
813.37,61.0
813.67,61.0
813.98,57.0
814.28,52.0
814.58,60.0
814.89,55.0
815.19,57.0
815.50,58.0
815.80,58.0
816.11,56.0
816.41,62.0
816.71,59.0
817.02,57.0
817.32,59.0
817.62,56.0
817.93,63.0
818.23,60.0
818.53,56.0
818.84,59.0
819.14,58.0
819.44,62.0
819.75,55.0
820.05,63.0
820.35,57.0
820.66,57.0
820.96,56.0
821.26,58.0
821.57,59.0
821.87,56.0
822.17,56.0
822.48,57.0
822.78,57.0
823.08,59.0
823.38,56.0
823.69,57.0
823.99,60.0
824.29,57.0
824.59,57.0
824.90,57.0
825.20,59.0
825.50,54.0
825.80,56.0
826.10,61.0
826.41,58.0
826.71,57.0
827.01,60.0
827.31,59.0
827.61,61.0
827.92,60.0
828.22,55.0
828.52,59.0
828.82,56.0
829.12,58.0
829.42,60.0
829.73,57.0
830.03,58.0
830.33,61.0
830.63,59.0
830.93,55.0
831.23,54.0
831.53,52.0
831.83,56.0
832.14,59.0
832.44,61.0
832.74,60.0
833.04,58.0
833.34,61.0
833.64,56.0
833.94,55.0
834.24,57.0
834.54,58.0
834.84,62.0
835.14,59.0
835.44,56.0
835.74,56.0
836.04,57.0
836.34,58.0
836.64,57.0
836.95,58.0
837.25,59.0
837.55,55.0
837.85,59.0
838.15,60.0
838.45,58.0
838.74,55.0
839.04,53.0
839.34,54.0
839.64,60.0
839.94,55.0
840.24,54.0
840.54,59.0
840.84,62.0
841.14,56.0
841.44,55.0
841.74,51.0
842.04,57.0
842.34,53.0
842.64,60.0
842.94,58.0
843.24,57.0
843.53,60.0
843.83,56.0
844.13,57.0
844.43,55.0
844.73,57.0
845.03,60.0
845.33,62.0
845.63,61.0
845.92,57.0
846.22,57.0
846.52,60.0
846.82,61.0
847.12,56.0
847.42,57.0
847.71,55.0
848.01,52.0
848.31,60.0
848.61,60.0
848.91,59.0
849.20,55.0
849.50,61.0
849.80,59.0
850.10,57.0
850.39,55.0
850.69,57.0
850.99,60.0
851.29,59.0
851.59,59.0
851.88,58.0
852.18,57.0
852.48,59.0
852.77,61.0
853.07,60.0
853.37,57.0
853.67,54.0
853.96,56.0
854.26,57.0
854.56,58.0
854.85,58.0
855.15,58.0
855.45,53.0
855.74,56.0
856.04,59.0
856.34,58.0
856.63,63.0
856.93,61.0
857.23,59.0
857.52,57.0
857.82,57.0
858.11,56.0
858.41,59.0
858.71,56.0
859.00,56.0
859.30,59.0
859.59,54.0
859.89,54.0
860.19,54.0
860.48,62.0
860.78,61.0
861.07,56.0
861.37,57.0
861.66,57.0
861.96,55.0
862.26,58.0
862.55,57.0
862.85,59.0
863.14,59.0
863.44,56.0
863.73,57.0
864.03,60.0
864.32,55.0
864.62,59.0
864.91,63.0
865.21,59.0
865.50,58.0
865.80,62.0
866.09,56.0
866.39,61.0
866.68,55.0
866.97,54.0
867.27,55.0
867.56,54.0
867.86,56.0
868.15,57.0
868.45,62.0
868.74,62.0
869.03,60.0
869.33,56.0
869.62,54.0
869.92,57.0
870.21,60.0
870.50,62.0
870.80,62.0
871.09,62.0
871.39,57.0
871.68,56.0
871.97,61.0
872.27,58.0
872.56,55.0
872.85,59.0
873.15,62.0
873.44,57.0
873.73,62.0
874.03,62.0
874.32,61.0
874.61,59.0
874.90,56.0
875.20,57.0
875.49,54.0
875.78,62.0
