Wavelength,Intensity
200.60,0.0
201.20,67.0
201.80,62.0
202.40,67.0
203.00,72.0
203.60,67.0
204.20,66.0
204.80,68.0
205.40,67.0
206.00,67.0
206.60,64.0
207.20,63.0
207.80,69.0
208.40,69.0
209.00,70.0
209.60,63.0
210.20,69.0
210.80,69.0
211.40,65.0
212.00,67.0
212.60,70.0
213.20,73.0
213.80,63.0
214.40,70.0
215.00,67.0
215.60,67.0
216.20,68.0
216.80,67.0
217.40,68.0
218.00,70.0
218.60,69.0
219.20,67.0
219.80,71.0
220.40,68.0
221.00,67.0
221.60,71.0
222.20,69.0
222.80,71.0
223.40,71.0
224.00,69.0
224.60,70.0
225.20,69.0
225.80,69.0
226.40,65.0
227.00,65.0
227.60,62.0
228.20,69.0
228.80,69.0
229.40,71.0
230.00,71.0
230.60,66.0
231.20,66.0
231.80,66.0
232.39,64.0
232.99,68.0
233.59,71.0
234.19,67.0
234.79,70.0
235.39,70.0
235.99,69.0
236.59,71.0
237.19,75.0
237.79,70.0
238.39,68.0
238.99,70.0
239.59,72.0
240.19,67.0
240.79,66.0
241.39,71.0
241.99,69.0
242.59,70.0
243.19,66.0
243.79,70.0
244.39,70.0
244.99,72.0
245.59,70.0
246.19,69.0
246.79,71.0
247.39,70.0
247.99,73.0
248.59,66.0
249.19,67.0
249.79,68.0
250.39,68.0
250.99,68.0
251.59,67.0
252.19,70.0
252.79,71.0
253.39,70.0
253.99,69.0
254.58,72.0
255.18,72.0
255.78,68.0
256.38,70.0
256.98,70.0
257.58,68.0
258.18,67.0
258.78,66.0
259.38,71.0
259.98,70.0
260.58,69.0
261.18,70.0
261.78,73.0
262.38,71.0
262.98,69.0
263.58,71.0
264.18,74.0
264.78,70.0
265.38,71.0
265.98,69.0
266.58,71.0
267.18,74.0
267.78,75.0
268.38,71.0
268.98,71.0
269.58,65.0
270.17,70.0
270.77,70.0
271.37,71.0
271.97,73.0
272.57,72.0
273.17,70.0
273.77,72.0
274.37,69.0
274.97,70.0
275.57,68.0
276.17,69.0
276.77,67.0
277.37,73.0
277.97,68.0
278.57,68.0
279.17,71.0
279.77,73.0
280.37,69.0
280.97,68.0
281.57,72.0
282.16,67.0
282.76,69.0
283.36,71.0
283.96,71.0
284.56,70.0
285.16,69.0
285.76,67.0
286.36,68.0
286.96,67.0
287.56,67.0
288.16,67.0
288.76,73.0
289.36,74.0
289.96,70.0
290.56,71.0
291.16,68.0
291.76,67.0
292.35,69.0
292.95,72.0
293.55,73.0
294.15,69.0
294.75,71.0
295.35,73.0
295.95,74.0
296.55,70.0
297.15,71.0
297.75,68.0
298.35,67.0
298.95,73.0
299.55,70.0
300.15,69.0
300.75,72.0
301.35,69.0
301.94,66.0
302.54,71.0
303.14,66.0
303.74,69.0
304.34,66.0
304.94,67.0
305.54,66.0
306.14,68.0
306.74,69.0
307.34,73.0
307.94,73.0
308.54,76.0
309.14,67.0
309.74,77.0
310.33,67.0
310.93,71.0
311.53,66.0
312.13,64.0
312.73,65.0
313.33,69.0
313.93,73.0
314.53,69.0
315.13,72.0
315.73,71.0
316.33,67.0
316.93,69.0
317.53,70.0
318.12,71.0
318.72,69.0
319.32,67.0
319.92,70.0
320.52,67.0
321.12,70.0
321.72,73.0
322.32,71.0
322.92,68.0
323.52,70.0
324.12,66.0
324.71,73.0
325.31,71.0
325.91,72.0
326.51,69.0
327.11,74.0
327.71,71.0
328.31,71.0
328.91,74.0
329.51,74.0
330.11,72.0
330.71,72.0
331.31,76.0
331.90,74.0
332.50,76.0
333.10,72.0
333.70,78.0
334.30,73.0
334.90,75.0
335.50,73.0
336.10,74.0
336.70,78.0
337.30,77.0
337.89,72.0
338.49,77.0
339.09,76.0
339.69,83.0
340.29,81.0
340.89,79.0
341.49,76.0
342.09,76.0
342.69,80.0
343.29,83.0
343.88,80.0
344.48,79.0
345.08,79.0
345.68,76.0
346.28,79.0
346.88,74.0
347.48,81.0
348.08,80.0
348.68,83.0
349.27,77.0
349.87,80.0
350.47,78.0
351.07,80.0
351.67,76.0
352.27,78.0
352.87,80.0
353.47,78.0
354.07,83.0
354.66,79.0
355.26,78.0
355.86,83.0
356.46,82.0
357.06,80.0
357.66,81.0
358.26,78.0
358.86,83.0
359.46,76.0
360.05,77.0
360.65,76.0
361.25,81.0
361.85,82.0
362.45,80.0
363.05,80.0
363.65,80.0
364.25,82.0
364.84,82.0
365.44,80.0
366.04,81.0
366.64,79.0
367.24,86.0
367.84,83.0
368.44,85.0
369.04,81.0
369.63,75.0
370.23,82.0
370.83,83.0
371.43,78.0
372.03,86.0
372.63,83.0
373.23,84.0
373.83,88.0
374.42,80.0
375.02,83.0
375.62,81.0
376.22,81.0
376.82,81.0
377.42,84.0
378.02,82.0
378.62,81.0
379.21,79.0
379.81,82.0
380.41,81.0
381.01,81.0
381.61,82.0
382.21,83.0
382.81,82.0
383.40,82.0
384.00,84.0
384.60,88.0
385.20,82.0
385.80,84.0
386.40,81.0
387.00,80.0
387.59,77.0
388.19,82.0
388.79,80.0
389.39,76.0
389.99,81.0
390.59,78.0
391.19,79.0
391.78,75.0
392.38,80.0
392.98,82.0
393.58,82.0
394.18,78.0
394.78,85.0
395.38,80.0
395.97,78.0
396.57,81.0
397.17,81.0
397.77,79.0
398.37,77.0
398.97,79.0
399.56,81.0
400.16,79.0
400.76,83.0
401.36,80.0
401.96,80.0
402.56,78.0
403.15,81.0
403.75,80.0
404.35,76.0
404.95,80.0
405.55,80.0
406.15,91.0
406.75,81.0
407.34,78.0
407.94,81.0
408.54,82.0
409.14,79.0
409.74,83.0
410.34,85.0
410.93,82.0
411.53,79.0
412.13,83.0
412.73,85.0
413.33,83.0
413.93,83.0
414.52,80.0
415.12,79.0
415.72,82.0
416.32,79.0
416.92,85.0
417.51,86.0
418.11,81.0
418.71,83.0
419.31,79.0
419.91,83.0
420.51,85.0
421.10,85.0
421.70,82.0
422.30,89.0
422.90,91.0
423.50,91.0
424.10,83.0
424.69,88.0
425.29,90.0
425.89,89.0
426.49,90.0
427.09,88.0
427.68,96.0
428.28,95.0
428.88,93.0
429.48,92.0
430.08,96.0
430.68,95.0
431.27,98.0
431.87,98.0
432.47,96.0
433.07,100.0
433.67,103.0
434.26,102.0
434.86,114.0
435.46,107.0
436.06,112.0
436.66,106.0
437.25,111.0
437.85,117.0
438.45,116.0
439.05,122.0
439.65,122.0
440.24,125.0
440.84,114.0
441.44,127.0
442.04,126.0
442.64,135.0
443.23,131.0
443.83,139.0
444.43,139.0
445.03,146.0
445.63,139.0
446.22,141.0
446.82,139.0
447.42,145.0
448.02,150.0
448.62,144.0
449.21,146.0
449.81,147.0
450.41,154.0
451.01,155.0
451.61,155.0
452.20,154.0
452.80,155.0
453.40,155.0
454.00,162.0
454.60,154.0
455.19,153.0
455.79,163.0
456.39,166.0
456.99,167.0
457.58,167.0
458.18,163.0
458.78,157.0
459.38,166.0
459.98,162.0
460.57,156.0
461.17,168.0
461.77,176.0
462.37,171.0
462.96,171.0
463.56,171.0
464.16,179.0
464.76,183.0
465.36,175.0
465.95,179.0
466.55,179.0
467.15,183.0
467.75,184.0
468.34,187.0
468.94,188.0
469.54,189.0
470.14,185.0
470.73,190.0
471.33,198.0
471.93,201.0
472.53,201.0
473.13,198.0
473.72,197.0
474.32,205.0
474.92,210.0
475.52,197.0
476.11,214.0
476.71,204.0
477.31,203.0
477.91,209.0
478.50,214.0
479.10,217.0
479.70,216.0
480.30,210.0
480.89,208.0
481.49,211.0
482.09,221.0
482.69,213.0
483.28,218.0
483.88,220.0
484.48,229.0
485.08,227.0
485.67,221.0
486.27,226.0
486.87,231.0
487.47,232.0
488.06,235.0
488.66,239.0
489.26,238.0
489.86,235.0
490.45,245.0
491.05,236.0
491.65,244.0
492.25,237.0
492.84,246.0
493.44,247.0
494.04,252.0
494.64,252.0
495.23,255.0
495.83,261.0
496.43,265.0
497.03,258.0
497.62,255.0
498.22,264.0
498.82,267.0
499.42,270.0
500.01,271.0
500.61,277.0
501.21,269.0
501.81,285.0
502.40,290.0
503.00,287.0
503.60,291.0
504.19,298.0
504.79,284.0
505.39,298.0
505.99,290.0
506.58,306.0
507.18,301.0
507.78,291.0
508.38,302.0
508.97,301.0
509.57,319.0
510.17,304.0
510.76,315.0
511.36,298.0
511.96,320.0
512.56,305.0
513.15,317.0
513.75,328.0
514.35,315.0
514.94,334.0
515.54,329.0
516.14,320.0
516.74,319.0
517.33,338.0
517.93,347.0
518.53,337.0
519.12,326.0
519.72,343.0
520.32,340.0
520.92,346.0
521.51,354.0
522.11,382.0
522.71,375.0
523.30,375.0
523.90,372.0
524.50,382.0
525.09,391.0
525.69,404.0
526.29,410.0
526.89,396.0
527.48,399.0
528.08,429.0
528.68,411.0
529.27,418.0
529.87,417.0
530.47,407.0
531.06,439.0
531.66,389.0
532.26,448.0
532.86,446.0
533.45,435.0
534.05,417.0
534.65,446.0
535.24,435.0
535.84,453.0
536.44,471.0
537.03,471.0
537.63,478.0
538.23,477.0
538.82,465.0
539.42,488.0
540.02,476.0
540.61,451.0
541.21,479.0
541.81,479.0
542.41,436.0
543.00,447.0
543.60,513.0
544.20,544.0
544.79,530.0
545.39,552.0
545.99,567.0
546.58,537.0
547.18,473.0
547.78,499.0
548.37,518.0
548.97,536.0
549.57,461.0
550.16,513.0
550.76,503.0
551.36,525.0
551.95,518.0
552.55,515.0
553.15,590.0
553.74,596.0
554.34,574.0
554.94,571.0
555.53,614.0
556.13,546.0
556.73,553.0
557.32,480.0
557.92,501.0
558.52,510.0
559.11,541.0
559.71,569.0
560.31,560.0
560.90,527.0
561.50,579.0
562.10,546.0
562.69,529.0
563.29,538.0
563.89,574.0
564.48,571.0
565.08,557.0
565.67,650.0
566.27,573.0
566.87,581.0
567.46,605.0
568.06,598.0
568.66,611.0
569.25,609.0
569.85,512.0
570.45,566.0
571.04,580.0
571.64,584.0
572.24,577.0
572.83,595.0
573.43,645.0
574.03,652.0
574.62,588.0
575.22,602.0
575.81,596.0
576.41,578.0
577.01,598.0
577.60,537.0
578.20,565.0
578.80,601.0
579.39,631.0
579.99,625.0
580.58,568.0
581.18,512.0
581.78,559.0
582.37,554.0
582.97,538.0
583.57,640.0
584.16,577.0
584.76,544.0
585.35,596.0
585.95,592.0
586.55,599.0
587.14,537.0
587.74,625.0
588.34,620.0
588.93,603.0
589.53,562.0
590.12,556.0
590.72,626.0
591.32,633.0
591.91,700.0
592.51,621.0
593.11,622.0
593.70,736.0
594.30,682.0
594.89,593.0
595.49,668.0
596.09,703.0
596.68,729.0
597.28,688.0
597.87,583.0
598.47,580.0
599.07,623.0
599.66,622.0
600.26,578.0
600.85,596.0
601.45,606.0
602.05,656.0
602.64,670.0
603.24,706.0
603.83,545.0
604.43,662.0
605.03,636.0
605.62,726.0
606.22,724.0
606.81,771.0
607.41,678.0
608.01,807.0
608.60,777.0
609.20,715.0
609.79,668.0
610.39,676.0
610.98,635.0
611.58,664.0
612.18,644.0
612.77,643.0
613.37,722.0
613.96,777.0
614.56,679.0
615.16,697.0
615.75,681.0
616.35,676.0
616.94,647.0
617.54,705.0
618.13,638.0
618.73,625.0
619.33,629.0
619.92,615.0
620.52,659.0
621.11,706.0
621.71,715.0
622.30,718.0
622.90,655.0
623.50,635.0
624.09,610.0
624.69,666.0
625.28,715.0
625.88,788.0
626.47,684.0
627.07,717.0
627.67,758.0
628.26,710.0
628.86,764.0
629.45,700.0
630.05,707.0
630.64,729.0
631.24,704.0
631.83,721.0
632.43,702.0
633.03,644.0
633.62,733.0
634.22,781.0
634.81,790.0
635.41,767.0
636.00,699.0
636.60,739.0
637.19,825.0
637.79,658.0
638.39,676.0
638.98,686.0
639.58,709.0
640.17,701.0
640.77,752.0
641.36,752.0
641.96,758.0
642.55,793.0
643.15,735.0
643.74,699.0
644.34,748.0
644.93,708.0
645.53,693.0
646.13,648.0
646.72,672.0
647.32,688.0
647.91,767.0
648.51,794.0
649.10,638.0
649.70,748.0
650.29,703.0
650.89,614.0
651.48,655.0
652.08,685.0
652.67,769.0
653.27,753.0
653.86,779.0
654.46,731.0
655.05,730.0
655.65,729.0
656.25,729.0
656.84,735.0
657.44,714.0
658.03,674.0
658.63,702.0
659.22,721.0
659.82,747.0
660.41,688.0
661.01,643.0
661.60,668.0
662.20,742.0
662.79,703.0
663.39,696.0
663.98,732.0
664.58,729.0
665.17,717.0
665.77,755.0
666.36,787.0
666.96,824.0
667.55,712.0
668.15,708.0
668.74,730.0
669.34,783.0
669.93,732.0
670.53,741.0
671.12,727.0
671.72,723.0
672.31,726.0
672.91,757.0
673.50,747.0
674.10,720.0
674.69,673.0
675.29,724.0
675.88,713.0
676.48,790.0
677.07,785.0
677.67,784.0
678.26,744.0
678.86,782.0
679.45,783.0
680.05,833.0
680.64,841.0
681.23,851.0
681.83,873.0
682.42,873.0
683.02,892.0
683.61,897.0
684.21,904.0
684.80,915.0
685.40,926.0
685.99,913.0
686.59,893.0
687.18,890.0
687.78,979.0
688.37,962.0
688.97,945.0
689.56,943.0
690.16,954.0
690.75,977.0
691.34,1000.0
691.94,1012.0
692.53,1039.0
693.13,1045.0
693.72,1040.0
694.32,1036.0
694.91,1093.0
695.51,1081.0
696.10,1071.0
696.70,1064.0
697.29,1090.0
697.89,1087.0
698.48,1157.0
699.07,1203.0
699.67,1249.0
700.26,1475.0
700.86,1661.0
701.45,1815.0
702.05,1684.0
702.64,1518.0
703.24,1432.0
703.83,1270.0
704.42,1204.0
705.02,1231.0
705.61,1192.0
706.21,1187.0
706.80,1194.0
707.40,1179.0
707.99,1173.0
708.58,1207.0
709.18,1206.0
709.77,1201.0
710.37,1195.0
710.96,1210.0
711.56,1201.0
712.15,1201.0
712.75,1199.0
713.34,1176.0
713.93,1210.0
714.53,1216.0
715.12,1229.0
715.72,1219.0
716.31,1224.0
716.90,1191.0
717.50,1231.0
718.09,1225.0
718.69,1253.0
719.28,1267.0
719.88,1249.0
720.47,1243.0
721.06,1209.0
721.66,1203.0
722.25,1209.0
722.85,1233.0
723.44,1252.0
724.03,1251.0
724.63,1264.0
725.22,1230.0
725.82,1221.0
726.41,1223.0
727.00,1249.0
727.60,1266.0
728.19,1263.0
728.79,1264.0
729.38,1265.0
729.97,1281.0
730.57,1275.0
731.16,1271.0
731.76,1268.0
732.35,1246.0
732.94,1252.0
733.54,1254.0
734.13,1254.0
734.73,1271.0
735.32,1261.0
735.91,1283.0
736.51,1267.0
737.10,1265.0
737.70,1256.0
738.29,1255.0
738.88,1272.0
739.48,1250.0
740.07,1268.0
740.66,1254.0
741.26,1252.0
741.85,1264.0
742.45,1273.0
743.04,1248.0
743.63,1257.0
744.23,1267.0
744.82,1274.0
745.41,1273.0
746.01,1277.0
746.60,1274.0
747.20,1277.0
747.79,1279.0
748.38,1274.0
748.98,1285.0
749.57,1276.0
750.16,1275.0
750.76,1275.0
751.35,1248.0
751.95,1266.0
752.54,1278.0
753.13,1293.0
753.73,1274.0
754.32,1292.0
754.91,1273.0
755.51,1287.0
756.10,1274.0
756.69,1298.0
757.29,1313.0
757.88,1298.0
758.47,1312.0
759.07,1321.0
759.66,1301.0
760.25,1302.0
760.85,1267.0
761.44,1280.0
762.03,1307.0
762.63,1302.0
763.22,1293.0
763.82,1303.0
764.41,1282.0
765.00,1303.0
765.60,1297.0
766.19,1305.0
766.78,1311.0
767.38,1302.0
767.97,1304.0
768.56,1329.0
769.16,1319.0
769.75,1318.0
770.34,1280.0
770.94,1299.0
771.53,1324.0
772.12,1315.0
772.71,1321.0
773.31,1338.0
773.90,1304.0
774.49,1332.0
775.09,1351.0
775.68,1334.0
776.27,1337.0
776.87,1303.0
777.46,1331.0
778.05,1318.0
778.65,1337.0
779.24,1333.0
779.83,1321.0
780.43,1321.0
781.02,1353.0
781.61,1352.0
782.21,1365.0
782.80,1365.0
783.39,1358.0
783.98,1368.0
784.58,1376.0
785.17,1344.0
785.76,1363.0
786.36,1383.0
786.95,1352.0
787.54,1319.0
788.14,1339.0
788.73,1340.0
789.32,1355.0
789.91,1347.0
790.51,1377.0
791.10,1352.0
791.69,1385.0
792.29,1391.0
792.88,1394.0
793.47,1383.0
794.06,1356.0
794.66,1384.0
795.25,1385.0
795.84,1367.0
796.44,1374.0
797.03,1380.0
797.62,1391.0
798.21,1398.0
798.81,1396.0
799.40,1382.0
799.99,1366.0
800.58,1396.0
801.18,1380.0
801.77,1395.0
802.36,1400.0
802.96,1384.0
803.55,1381.0
804.14,1377.0
804.73,1372.0
805.33,1392.0
805.92,1375.0
806.51,1427.0
807.10,1437.0
807.70,1459.0
808.29,1431.0
808.88,1446.0
809.47,1388.0
810.07,1403.0
810.66,1396.0
811.25,1379.0
811.84,1359.0
812.44,1375.0
813.03,1387.0
813.62,1392.0
814.21,1408.0
814.81,1403.0
815.40,1401.0
815.99,1401.0
816.58,1423.0
817.18,1408.0
817.77,1426.0
818.36,1401.0
818.95,1422.0
819.55,1401.0
820.14,1438.0
820.73,1425.0
821.32,1439.0
821.92,1435.0
822.51,1447.0
823.10,1437.0
823.69,1440.0
824.28,1408.0
824.88,1428.0
825.47,1412.0
826.06,1424.0
826.65,1410.0
827.25,1425.0
827.84,1438.0
828.43,1449.0
829.02,1473.0
829.61,1490.0
830.21,1470.0
830.80,1500.0
831.39,1476.0
831.98,1451.0
832.58,1458.0
833.17,1452.0
833.76,1479.0
834.35,1465.0
834.94,1505.0
835.54,1496.0
836.13,1477.0
836.72,1488.0
837.31,1467.0
837.90,1455.0
838.50,1459.0
839.09,1461.0
839.68,1481.0
840.27,1489.0
840.86,1509.0
841.46,1538.0
842.05,1545.0
842.64,1586.0
843.23,1588.0
843.82,1608.0
844.42,1655.0
845.01,1705.0
845.60,1734.0
846.19,1719.0
846.78,1756.0
847.37,1796.0
847.97,1809.0
848.56,1824.0
849.15,1838.0
849.74,1822.0
850.33,1785.0
850.93,1814.0
851.52,1905.0
852.11,1915.0
852.70,1948.0
853.29,1973.0
853.88,1965.0
854.48,1927.0
855.07,1931.0
855.66,1912.0
856.25,1903.0
856.84,1926.0
857.43,1931.0
858.03,2018.0
858.62,2104.0
859.21,2172.0
859.80,2167.0
860.39,2117.0
860.98,2011.0
861.58,1993.0
862.17,1962.0
862.76,1972.0
863.35,1972.0
863.94,1982.0
864.53,2116.0
865.12,2259.0
865.72,2384.0
866.31,2386.0
866.90,2278.0
867.49,2150.0
868.08,2026.0
868.67,1910.0
869.26,1849.0
869.86,1828.0
870.45,1865.0
871.04,1933.0
871.63,2022.0
872.22,2079.0
872.81,2030.0
873.40,1954.0
873.99,1916.0
874.59,1915.0
875.18,1897.0
875.77,1954.0
876.36,1931.0
876.95,1922.0
877.54,1885.0
878.13,1814.0
878.72,1782.0
879.32,1745.0
879.91,1708.0
880.50,1677.0
881.09,1683.0
881.68,1659.0
882.27,1621.0
882.86,1640.0
883.45,1628.0
884.04,1669.0
884.64,1751.0
885.23,1816.0
885.82,1910.0
886.41,1886.0
887.00,1852.0
887.59,1792.0
888.18,1784.0
888.77,1790.0
889.36,1799.0
889.96,1763.0
890.55,1752.0
891.14,1718.0
891.73,1667.0
892.32,1646.0
892.91,1671.0
893.50,1681.0
894.09,1679.0
894.68,1694.0
895.27,1729.0
895.86,1777.0
896.46,1815.0
897.05,1785.0
897.64,1770.0
898.23,1811.0
898.82,1785.0
899.41,1774.0
900.00,1752.0
900.59,1764.0
901.18,1724.0
901.77,1735.0
902.36,1715.0
902.95,1746.0
903.54,1733.0
904.13,1786.0
904.73,1783.0
905.32,1736.0
905.91,1713.0
906.50,1691.0
907.09,1650.0
907.68,1720.0
908.27,1706.0
908.86,1677.0
909.45,1677.0
910.04,1697.0
910.63,1683.0
911.22,1691.0
911.81,1689.0
912.40,1674.0
912.99,1637.0
913.58,1627.0
914.17,1623.0
914.76,1643.0
915.36,1641.0
915.95,1685.0
916.54,1627.0
917.13,1629.0
917.72,1631.0
918.31,1614.0
918.90,1571.0
919.49,1610.0
920.08,1568.0
920.67,1562.0
921.26,1590.0
921.85,1563.0
922.44,1567.0
923.03,1588.0
923.62,1607.0
924.21,1577.0
924.80,1604.0
925.39,1599.0
925.98,1583.0
926.57,1547.0
927.16,1522.0
927.75,1502.0
928.34,1505.0
928.93,1492.0
929.52,1494.0
930.11,1466.0
930.70,1493.0
931.29,1458.0
931.88,1455.0
932.47,1467.0
933.06,1458.0
933.65,1474.0
934.24,1447.0
934.83,1416.0
935.42,1380.0
936.01,1400.0
936.60,1426.0
937.19,1418.0
937.78,1427.0
938.37,1413.0
938.96,1461.0
939.55,1438.0
940.14,1438.0
940.73,1440.0
941.32,1432.0
941.91,1415.0
942.50,1391.0
943.09,1378.0
943.68,1380.0
944.27,1360.0
944.86,1327.0
945.45,1351.0
946.04,1350.0
946.63,1340.0
947.22,1327.0
947.81,1319.0
948.40,1300.0
948.99,1314.0
949.58,1330.0
950.17,1318.0
950.76,1313.0
951.35,1293.0
951.94,1303.0
952.53,1292.0
953.12,1291.0
953.71,1294.0
954.30,1266.0
954.89,1254.0
955.48,1262.0
956.06,1247.0
956.65,1255.0
957.24,1249.0
957.83,1245.0
958.42,1230.0
959.01,1224.0
959.60,1234.0
960.19,1216.0
960.78,1227.0
961.37,1249.0
961.96,1249.0
962.55,1244.0
963.14,1224.0
963.73,1212.0
964.32,1214.0
964.91,1224.0
965.50,1216.0
966.09,1214.0
966.67,1196.0
967.26,1207.0
967.85,1208.0
968.44,1182.0
969.03,1190.0
969.62,1174.0
970.21,1178.0
970.80,1182.0
971.39,1173.0
971.98,1161.0
972.57,1160.0
973.16,1152.0
973.75,1139.0
974.33,1146.0
974.92,1162.0
975.51,1135.0
976.10,1148.0
976.69,1155.0
977.28,1155.0
977.87,1137.0
978.46,1131.0
979.05,1152.0
979.64,1129.0
980.23,1121.0
980.81,1124.0
981.40,1131.0
981.99,1119.0
982.58,1140.0
983.17,1136.0
983.76,1145.0
984.35,1165.0
984.94,1171.0
985.53,1184.0
986.11,1170.0
986.70,1151.0
987.29,1146.0
987.88,1138.0
988.47,1143.0
989.06,1130.0
989.65,1143.0
990.24,1139.0
990.83,1144.0
991.41,1118.0
992.00,1129.0
992.59,1144.0
993.18,1131.0
993.77,1130.0
994.36,1119.0
994.95,1125.0
995.53,1192.0
996.12,1986.0
996.71,3275.0
997.30,3926.0
997.89,4080.0
998.48,3398.0
999.07,2745.0
999.65,2288.0
1000.24,1949.0
1000.83,1567.0
1001.42,1331.0
1002.01,1207.0
1002.60,1137.0
1003.19,1105.0
1003.77,1102.0
1004.36,1075.0
1004.95,1087.0
1005.54,1080.0
1006.13,1075.0
1006.72,1067.0
1007.31,1070.0
1007.89,1083.0
1008.48,1053.0
1009.07,1066.0
1009.66,1060.0
1010.25,1055.0
1010.84,1052.0
1011.42,1052.0
1012.01,1061.0
1012.60,1074.0
1013.19,1068.0
1013.78,1060.0
1014.36,1074.0
1014.95,1036.0
1015.54,1058.0
1016.13,1037.0
1016.72,1051.0
1017.31,1027.0
1017.89,1044.0
1018.48,1068.0
1019.07,1050.0
1019.66,1019.0
1020.25,1037.0
1020.83,1039.0
1021.42,1037.0
1022.01,1044.0
1022.60,1040.0
1023.19,1044.0
1023.77,1041.0
1024.36,1041.0
1024.95,1059.0
1025.54,1071.0
1026.13,1073.0
1026.71,1076.0
1027.30,1082.0
1027.89,1048.0
1028.48,1048.0
1029.07,1037.0
1029.65,1028.0
1030.24,1037.0
1030.83,1013.0
1031.42,1023.0
1032.00,1023.0
1032.59,1012.0
1033.18,1016.0
1033.77,1000.0
1034.36,1001.0
1034.94,1000.0
1035.53,997.0
1036.12,1014.0
1036.71,1027.0
1037.29,1024.0
1037.88,1015.0
1038.47,993.0
1039.06,1011.0
1039.65,998.0
1040.23,1020.0
1040.82,1037.0
1041.41,1009.0
1042.00,1014.0
1042.58,986.0
1043.17,984.0
1043.76,1002.0
1044.35,985.0
1044.93,974.0
1045.52,975.0
1046.11,943.0
1046.70,959.0
1047.28,963.0
1047.87,946.0
1048.46,969.0
1049.05,1003.0
1049.63,996.0
1050.22,1016.0
1050.81,1026.0
1051.39,1016.0
1051.98,990.0
1052.57,984.0
1053.16,989.0
1053.74,983.0
1054.33,986.0
1054.92,978.0
1055.51,963.0
1056.09,965.0
1056.68,964.0
1057.27,931.0
1057.85,924.0
1058.44,952.0
1059.03,939.0
1059.62,918.0
1060.20,929.0
1060.79,937.0
1061.38,944.0
1061.96,931.0
1062.55,935.0
1063.14,916.0
1063.73,933.0
1064.31,929.0
1064.90,927.0
1065.49,919.0
1066.07,906.0
1066.66,888.0
1067.25,891.0
1067.83,898.0
1068.42,876.0
1069.01,878.0
1069.59,873.0
1070.18,859.0
1070.77,862.0
1071.36,879.0
1071.94,897.0
1072.53,907.0
1073.12,893.0
1073.70,867.0
1074.29,870.0
1074.88,861.0
1075.46,867.0
1076.05,859.0
1076.64,866.0
1077.22,838.0
1077.81,826.0
1078.40,825.0
1078.98,824.0
1079.57,805.0
1080.16,813.0
1080.74,832.0
1081.33,839.0
1081.92,836.0
1082.50,809.0
1083.09,822.0
1083.68,828.0
1084.26,806.0
1084.85,802.0
1085.44,812.0
1086.02,812.0
1086.61,782.0
1087.19,797.0
1087.78,803.0
1088.37,807.0
1088.95,831.0
1089.54,837.0
1090.13,847.0
1090.71,839.0
1091.30,847.0
1091.89,831.0
1092.47,822.0
1093.06,827.0
1093.64,829.0
1094.23,811.0
1094.82,822.0
1095.40,825.0
1095.99,800.0
1096.58,796.0
1097.16,811.0
1097.75,790.0
1098.33,784.0
1098.92,779.0
1099.51,777.0
1100.09,785.0
1100.68,775.0
1101.27,780.0
1101.85,783.0
1102.44,785.0
1103.02,780.0
1103.61,780.0
1104.20,787.0
1104.78,790.0
1105.37,767.0
1105.95,769.0
1106.54,747.0
1107.13,758.0
1107.71,750.0
1108.30,741.0
1108.88,755.0
1109.47,755.0
1110.05,732.0
1110.64,741.0
1111.23,762.0
1111.81,751.0
1112.40,760.0
1112.98,733.0
1113.57,741.0
1114.16,734.0
1114.74,739.0
1115.33,743.0
1115.91,734.0
1116.50,732.0
1117.08,731.0
1117.67,719.0
1118.26,712.0
1118.84,712.0
1119.43,720.0
1120.01,719.0
1120.60,710.0
1121.18,703.0
1121.77,685.0
1122.35,709.0
1122.94,715.0
1123.53,715.0
1124.11,705.0
1124.70,726.0
1125.28,700.0
1125.87,714.0
1126.45,703.0
1127.04,702.0
1127.62,697.0
1128.21,694.0
1128.79,700.0
1129.38,694.0
1129.97,697.0
1130.55,696.0
1131.14,696.0
1131.72,696.0
1132.31,717.0
1132.89,707.0
1133.48,696.0
1134.06,712.0
1134.65,717.0
1135.23,715.0
1135.82,699.0
1136.40,702.0
1136.99,689.0
1137.57,685.0
1138.16,678.0
1138.74,672.0
1139.33,692.0
1139.91,689.0
1140.50,677.0
1141.08,679.0
1141.67,687.0
1142.25,671.0
1142.84,678.0
1143.42,676.0
1144.01,671.0
1144.59,685.0
1145.18,671.0
1145.76,675.0
1146.35,653.0
1146.93,639.0
1147.52,640.0
1148.10,640.0
1148.69,663.0
1149.27,661.0
1149.86,651.0
1150.44,643.0
1151.03,633.0
1151.61,616.0
1152.20,601.0
1152.78,598.0
1153.37,599.0
1153.95,601.0
1154.54,590.0
1155.12,584.0
1155.71,606.0
1156.29,585.0
1156.88,580.0
1157.46,574.0
1158.04,588.0
1158.63,579.0
1159.21,574.0
1159.80,573.0
1160.38,570.0
1160.97,571.0
1161.55,559.0
1162.14,550.0
1162.72,563.0
1163.31,557.0
1163.89,559.0
1164.47,568.0
1165.06,565.0
1165.64,540.0
1166.23,548.0
1166.81,551.0
1167.40,543.0
1167.98,546.0
1168.56,556.0
1169.15,560.0
1169.73,569.0
1170.32,555.0
1170.90,554.0
1171.49,555.0
1172.07,546.0
1172.65,548.0
1173.24,547.0
1173.82,547.0
1174.41,546.0
1174.99,549.0
1175.58,554.0
1176.16,557.0
1176.74,557.0
1177.33,554.0
1177.91,545.0
1178.50,540.0
1179.08,549.0
1179.66,533.0
1180.25,555.0
1180.83,554.0
1181.42,578.0
1182.00,562.0
1182.58,580.0
1183.17,589.0
1183.75,588.0
1184.34,572.0
1184.92,560.0
1185.50,556.0
1186.09,563.0
1186.67,565.0
1187.25,555.0
1187.84,562.0
1188.42,557.0
1189.01,557.0
1189.59,561.0
1190.17,542.0
1190.76,551.0
1191.34,525.0
1191.92,525.0
1192.51,522.0
1193.09,518.0
1193.68,529.0
1194.26,532.0
1194.84,537.0
1195.43,541.0
1196.01,530.0
1196.59,533.0
1197.18,552.0
1197.76,538.0
1198.34,528.0
1198.93,510.0
1199.51,501.0
1200.09,503.0
1200.68,493.0
1201.26,471.0
1201.84,492.0
1202.43,494.0
1203.01,489.0
1203.59,508.0
1204.18,515.0
1204.76,512.0
1205.34,496.0
1205.93,491.0
1206.51,495.0
1207.09,482.0
1207.68,479.0
1208.26,477.0
1208.84,487.0
1209.43,477.0
1210.01,479.0
1210.59,456.0
1211.18,460.0
1211.76,467.0
1212.34,459.0
1212.93,461.0
1213.51,452.0
1214.09,444.0
1214.68,456.0
1215.26,446.0
1215.84,429.0
1216.42,434.0
1217.01,415.0
1217.59,434.0
1218.17,427.0
1218.76,435.0
1219.34,425.0
1219.92,408.0
1220.51,420.0
1221.09,416.0
1221.67,419.0
1222.25,424.0
1222.84,425.0
1223.42,425.0
1224.00,429.0
1224.59,416.0
1225.17,417.0
1225.75,411.0
1226.33,415.0
1226.92,422.0
1227.50,421.0
1228.08,432.0
1228.66,416.0
1229.25,427.0
1229.83,412.0
1230.41,412.0
1230.99,410.0
1231.58,404.0
1232.16,406.0
1232.74,400.0
1233.32,394.0
1233.91,387.0
1234.49,388.0
1235.07,396.0
1235.65,396.0
1236.24,390.0
1236.82,384.0
1237.40,384.0
1237.98,379.0
1238.57,374.0
1239.15,385.0
1239.73,374.0
1240.31,380.0
1240.90,391.0
1241.48,389.0
1242.06,376.0
1242.64,374.0
1243.22,369.0
1243.81,364.0
1244.39,353.0
1244.97,358.0
1245.55,360.0
1246.14,364.0
1246.72,364.0
1247.30,353.0
1247.88,358.0
1248.46,347.0
1249.05,350.0
1249.63,350.0
1250.21,347.0
1250.79,346.0
1251.37,359.0
1251.96,362.0
1252.54,358.0
1253.12,357.0
1253.70,359.0
1254.28,354.0
1254.87,342.0
1255.45,328.0
1256.03,322.0
1256.61,334.0
1257.19,322.0
1257.78,317.0
1258.36,320.0
1258.94,323.0
1259.52,324.0
1260.10,322.0
1260.68,324.0
1261.27,313.0
1261.85,315.0
1262.43,312.0
1263.01,309.0
1263.59,303.0
1264.17,309.0
1264.76,313.0
1265.34,316.0
1265.92,301.0
1266.50,301.0
1267.08,299.0
1267.66,295.0
1268.25,286.0
1268.83,295.0
1269.41,305.0
1269.99,295.0
1270.57,290.0
1271.15,284.0
1271.73,298.0
1272.32,289.0
1272.90,290.0
1273.48,301.0
1274.06,287.0
1274.64,296.0
1275.22,296.0
1275.80,292.0
1276.38,280.0
1276.97,291.0
1277.55,283.0
1278.13,289.0
1278.71,276.0
1279.29,284.0
1279.87,275.0
1280.45,280.0
1281.03,269.0
1281.62,274.0
1282.20,261.0
1282.78,261.0
1283.36,272.0
1283.94,272.0
1284.52,276.0
1285.10,266.0
1285.68,265.0
1286.26,255.0
1286.84,258.0
1287.43,247.0
1288.01,260.0
1288.59,256.0
1289.17,264.0
1289.75,262.0
1290.33,261.0
1290.91,257.0
1291.49,241.0
1292.07,251.0
1292.65,247.0
1293.23,246.0
1293.81,255.0
1294.40,249.0
1294.98,241.0
1295.56,246.0
1296.14,245.0
1296.72,253.0
1297.30,247.0
1297.88,237.0
1298.46,243.0
1299.04,241.0
1299.62,235.0
1300.20,236.0
1300.78,236.0
1301.36,232.0
1301.94,230.0
1302.52,239.0
1303.10,234.0
1303.68,239.0
1304.27,234.0
1304.85,239.0
1305.43,224.0
1306.01,232.0
1306.59,230.0
1307.17,227.0
1307.75,233.0
1308.33,233.0
1308.91,221.0
1309.49,216.0
1310.07,223.0
1310.65,212.0
1311.23,227.0
1311.81,217.0
1312.39,218.0
1312.97,225.0
1313.55,211.0
1314.13,216.0
1314.71,220.0
1315.29,223.0
1315.87,227.0
1316.45,218.0
1317.03,224.0
1317.61,216.0
1318.19,215.0
1318.77,212.0
1319.35,209.0
1319.93,209.0
1320.51,207.0
1321.09,200.0
1321.67,208.0
1322.25,195.0
1322.83,199.0
1323.41,204.0
1323.99,208.0
1324.57,196.0
1325.15,201.0
1325.73,195.0
1326.31,200.0
1326.89,193.0
1327.47,206.0
1328.05,193.0
1328.63,199.0
1329.21,201.0
1329.79,189.0
1330.37,193.0
1330.95,194.0
1331.53,192.0
1332.11,193.0
1332.68,196.0
1333.26,194.0
1333.84,186.0
1334.42,194.0
1335.00,189.0
1335.58,191.0
1336.16,186.0
1336.74,194.0
1337.32,190.0
1337.90,185.0
1338.48,191.0
1339.06,189.0
1339.64,181.0
1340.22,182.0
1340.80,175.0
1341.38,181.0
1341.96,187.0
1342.53,185.0
1343.11,181.0
1343.69,183.0
1344.27,178.0
1344.85,179.0
1345.43,177.0
1346.01,179.0
1346.59,176.0
1347.17,175.0
1347.75,176.0
1348.33,175.0
1348.91,178.0
1349.48,175.0
1350.06,168.0
1350.64,173.0
1351.22,170.0
1351.80,168.0
1352.38,172.0
1352.96,168.0
1353.54,172.0
1354.12,177.0
1354.69,168.0
1355.27,163.0
1355.85,167.0
1356.43,171.0
1357.01,169.0
1357.59,161.0
1358.17,170.0
1358.75,168.0
1359.32,163.0
1359.90,162.0
1360.48,165.0
1361.06,159.0
1361.64,153.0
1362.22,157.0
1362.80,157.0
1363.38,165.0
1363.95,162.0
1364.53,165.0
1365.11,160.0
1365.69,165.0
1366.27,162.0
1366.85,161.0
1367.43,157.0
1368.00,158.0
1368.58,159.0
1369.16,156.0
1369.74,155.0
1370.32,158.0
1370.90,162.0
1371.47,155.0
1372.05,159.0
1372.63,156.0
1373.21,153.0
1373.79,156.0
1374.37,150.0
1374.94,152.0
1375.52,151.0
1376.10,154.0
1376.68,148.0
1377.26,150.0
1377.83,146.0
1378.41,143.0
1378.99,145.0
1379.57,147.0
1380.15,145.0
1380.72,142.0
1381.30,148.0
1381.88,138.0
1382.46,146.0
1383.04,139.0
1383.61,142.0
1384.19,139.0
1384.77,145.0
1385.35,143.0
1385.93,137.0
1386.50,141.0
1387.08,141.0
1387.66,142.0
1388.24,144.0
1388.82,133.0
1389.39,138.0
1389.97,136.0
1390.55,138.0
1391.13,133.0
1391.70,140.0
1392.28,131.0
1392.86,136.0
1393.44,130.0
1394.01,136.0
1394.59,137.0
1395.17,139.0
1395.75,132.0
1396.32,136.0
1396.90,133.0
1397.48,133.0
1398.06,131.0
1398.63,126.0
1399.21,123.0
1399.79,129.0
1400.37,125.0
1400.94,131.0
1401.52,127.0
1402.10,126.0
1402.68,134.0
1403.25,130.0
1403.83,129.0
1404.41,121.0
1404.99,128.0
1405.56,128.0
1406.14,127.0
1406.72,123.0
1407.29,123.0
1407.87,122.0
1408.45,127.0
1409.03,125.0
1409.60,118.0
1410.18,127.0
