Wavelength,Intensity
179.38,0.0
179.75,52.0
180.13,56.0
180.51,56.0
180.88,60.0
181.26,59.0
181.64,55.0
182.02,54.0
182.39,60.0
182.77,60.0
183.15,54.0
183.52,58.0
183.90,53.0
184.28,54.0
184.65,59.0
185.03,62.0
185.41,55.0
185.78,52.0
186.16,51.0
186.53,52.0
186.91,57.0
187.29,57.0
187.66,55.0
188.04,57.0
188.42,54.0
188.79,61.0
189.17,58.0
189.55,58.0
189.92,62.0
190.30,60.0
190.67,58.0
191.05,62.0
191.43,58.0
191.80,59.0
192.18,58.0
192.56,57.0
192.93,60.0
193.31,58.0
193.68,55.0
194.06,59.0
194.44,56.0
194.81,54.0
195.19,58.0
195.56,56.0
195.94,58.0
196.32,53.0
196.69,59.0
197.07,57.0
197.44,57.0
197.82,58.0
198.19,61.0
198.57,55.0
198.95,54.0
199.32,60.0
199.70,61.0
200.07,57.0
200.45,62.0
200.82,56.0
201.20,58.0
201.57,59.0
201.95,63.0
202.33,62.0
202.70,59.0
203.08,59.0
203.45,61.0
203.83,55.0
204.20,56.0
204.58,54.0
204.95,58.0
205.33,57.0
205.70,60.0
206.08,59.0
206.45,58.0
206.83,57.0
207.20,56.0
207.58,54.0
207.95,60.0
208.33,57.0
208.70,58.0
209.08,56.0
209.45,53.0
209.83,57.0
210.20,60.0
210.58,61.0
210.95,61.0
211.33,62.0
211.70,61.0
212.08,58.0
212.45,59.0
212.83,61.0
213.20,58.0
213.58,57.0
213.95,56.0
214.33,53.0
214.70,60.0
215.07,57.0
215.45,58.0
215.82,53.0
216.20,61.0
216.57,62.0
216.95,59.0
217.32,59.0
217.70,63.0
218.07,62.0
218.44,60.0
218.82,58.0
219.19,60.0
219.57,57.0
219.94,58.0
220.32,62.0
220.69,61.0
221.06,60.0
221.44,59.0
221.81,56.0
222.19,59.0
222.56,57.0
222.93,63.0
223.31,59.0
223.68,60.0
224.06,53.0
224.43,58.0
224.80,57.0
225.18,56.0
225.55,63.0
225.92,56.0
226.30,59.0
226.67,60.0
227.05,58.0
227.42,56.0
227.79,60.0
228.17,60.0
228.54,58.0
228.91,58.0
229.29,60.0
229.66,59.0
230.03,62.0
230.41,56.0
230.78,56.0
231.15,61.0
231.53,63.0
231.90,64.0
232.27,59.0
232.65,62.0
233.02,57.0
233.39,56.0
233.77,63.0
234.14,60.0
234.51,58.0
234.89,57.0
235.26,59.0
235.63,58.0
236.01,58.0
236.38,63.0
236.75,61.0
237.12,55.0
237.50,58.0
237.87,52.0
238.24,57.0
238.62,56.0
238.99,57.0
239.36,59.0
239.73,57.0
240.11,59.0
240.48,57.0
240.85,56.0
241.23,61.0
241.60,63.0
241.97,58.0
242.34,64.0
242.72,61.0
243.09,56.0
243.46,56.0
243.83,59.0
244.21,61.0
244.58,65.0
244.95,60.0
245.32,59.0
245.70,55.0
246.07,62.0
246.44,55.0
246.81,60.0
247.18,63.0
247.56,57.0
247.93,59.0
248.30,60.0
248.67,58.0
249.04,58.0
249.42,64.0
249.79,57.0
250.16,60.0
250.53,59.0
250.90,59.0
251.28,60.0
251.65,56.0
252.02,61.0
252.39,61.0
252.76,58.0
253.14,60.0
253.51,61.0
253.88,57.0
254.25,64.0
254.62,58.0
254.99,59.0
255.37,57.0
255.74,66.0
256.11,62.0
256.48,61.0
256.85,60.0
257.22,63.0
257.59,65.0
257.97,61.0
258.34,58.0
258.71,56.0
259.08,58.0
259.45,62.0
259.82,60.0
260.19,60.0
260.56,64.0
260.94,57.0
261.31,63.0
261.68,66.0
262.05,58.0
262.42,63.0
262.79,58.0
263.16,63.0
263.53,65.0
263.90,62.0
264.28,62.0
264.65,68.0
265.02,63.0
265.39,60.0
265.76,61.0
266.13,64.0
266.50,61.0
266.87,64.0
267.24,67.0
267.61,64.0
267.98,60.0
268.35,59.0
268.72,62.0
269.09,63.0
269.46,68.0
269.84,71.0
270.21,69.0
270.58,67.0
270.95,66.0
271.32,70.0
271.69,63.0
272.06,65.0
272.43,67.0
272.80,66.0
273.17,69.0
273.54,64.0
273.91,68.0
274.28,66.0
274.65,67.0
275.02,63.0
275.39,63.0
275.76,64.0
276.13,64.0
276.50,66.0
276.87,64.0
277.24,69.0
277.61,68.0
277.98,66.0
278.35,65.0
278.72,64.0
279.09,62.0
279.46,66.0
279.83,66.0
280.20,66.0
280.57,63.0
280.94,65.0
281.31,64.0
281.67,64.0
282.04,68.0
282.41,65.0
282.78,67.0
283.15,67.0
283.52,64.0
283.89,68.0
284.26,65.0
284.63,64.0
285.00,69.0
285.37,69.0
285.74,67.0
286.11,65.0
286.48,71.0
286.85,66.0
287.21,66.0
287.58,66.0
287.95,66.0
288.32,65.0
288.69,70.0
289.06,65.0
289.43,64.0
289.80,70.0
290.17,67.0
290.54,66.0
290.90,68.0
291.27,65.0
291.64,69.0
292.01,67.0
292.38,66.0
292.75,69.0
293.12,67.0
293.48,67.0
293.85,71.0
294.22,70.0
294.59,72.0
294.96,67.0
295.33,66.0
295.70,66.0
296.06,65.0
296.43,71.0
296.80,69.0
297.17,68.0
297.54,64.0
297.91,71.0
298.27,70.0
298.64,65.0
299.01,67.0
299.38,69.0
299.75,71.0
300.11,67.0
300.48,64.0
300.85,70.0
301.22,67.0
301.59,70.0
301.95,67.0
302.32,65.0
302.69,65.0
303.06,64.0
303.43,70.0
303.79,71.0
304.16,73.0
304.53,67.0
304.90,70.0
305.26,70.0
305.63,67.0
306.00,71.0
306.37,69.0
306.73,67.0
307.10,63.0
307.47,71.0
307.84,73.0
308.20,71.0
308.57,67.0
308.94,65.0
309.31,69.0
309.67,67.0
310.04,69.0
310.41,66.0
310.77,67.0
311.14,70.0
311.51,67.0
311.88,71.0
312.24,65.0
312.61,70.0
312.98,66.0
313.34,70.0
313.71,67.0
314.08,70.0
314.44,72.0
314.81,67.0
315.18,71.0
315.55,75.0
315.91,74.0
316.28,73.0
316.65,65.0
317.01,69.0
317.38,75.0
317.75,73.0
318.11,70.0
318.48,68.0
318.84,73.0
319.21,75.0
319.58,69.0
319.94,75.0
320.31,76.0
320.68,72.0
321.04,73.0
321.41,76.0
321.78,74.0
322.14,78.0
322.51,76.0
322.87,78.0
323.24,81.0
323.61,82.0
323.97,80.0
324.34,85.0
324.70,85.0
325.07,84.0
325.44,83.0
325.80,88.0
326.17,90.0
326.53,92.0
326.90,87.0
327.27,89.0
327.63,93.0
328.00,94.0
328.36,91.0
328.73,96.0
329.09,93.0
329.46,95.0
329.83,95.0
330.19,93.0
330.56,97.0
330.92,106.0
331.29,96.0
331.65,100.0
332.02,101.0
332.38,104.0
332.75,104.0
333.11,103.0
333.48,110.0
333.84,111.0
334.21,108.0
334.58,111.0
334.94,107.0
335.31,110.0
335.67,117.0
336.04,115.0
336.40,115.0
336.77,113.0
337.13,113.0
337.50,116.0
337.86,115.0
338.22,115.0
338.59,115.0
338.95,113.0
339.32,122.0
339.68,117.0
340.05,118.0
340.41,116.0
340.78,114.0
341.14,116.0
341.51,120.0
341.87,127.0
342.24,121.0
342.60,127.0
342.96,131.0
343.33,120.0
343.69,121.0
344.06,125.0
344.42,127.0
344.79,123.0
345.15,135.0
345.51,135.0
345.88,130.0
346.24,128.0
346.61,134.0
346.97,130.0
347.34,134.0
347.70,134.0
348.06,136.0
348.43,143.0
348.79,138.0
349.16,143.0
349.52,138.0
349.88,147.0
350.25,146.0
350.61,140.0
350.97,150.0
351.34,146.0
351.70,148.0
352.07,152.0
352.43,146.0
352.79,144.0
353.16,149.0
353.52,149.0
353.88,147.0
354.25,147.0
354.61,159.0
354.97,143.0
355.34,151.0
355.70,156.0
356.06,149.0
356.43,158.0
356.79,152.0
357.15,154.0
357.52,154.0
357.88,152.0
358.24,162.0
358.60,155.0
358.97,168.0
359.33,163.0
359.69,169.0
360.06,160.0
360.42,174.0
360.78,171.0
361.14,169.0
361.51,177.0
361.87,172.0
362.23,175.0
362.60,173.0
362.96,173.0
363.32,183.0
363.68,181.0
364.05,182.0
364.41,180.0
364.77,190.0
365.13,183.0
365.50,189.0
365.86,191.0
366.22,195.0
366.58,184.0
366.95,199.0
367.31,195.0
367.67,199.0
368.03,190.0
368.39,201.0
368.76,199.0
369.12,186.0
369.48,199.0
369.84,199.0
370.20,203.0
370.57,206.0
370.93,204.0
371.29,200.0
371.65,204.0
372.01,205.0
372.38,202.0
372.74,211.0
373.10,200.0
373.46,210.0
373.82,219.0
374.18,212.0
374.55,211.0
374.91,215.0
375.27,225.0
375.63,224.0
375.99,219.0
376.35,223.0
376.71,217.0
377.08,228.0
377.44,232.0
377.80,246.0
378.16,236.0
378.52,241.0
378.88,246.0
379.24,247.0
379.60,255.0
379.97,261.0
380.33,260.0
380.69,249.0
381.05,255.0
381.41,269.0
381.77,265.0
382.13,268.0
382.49,262.0
382.85,255.0
383.21,276.0
383.57,266.0
383.94,282.0
384.30,272.0
384.66,280.0
385.02,258.0
385.38,283.0
385.74,273.0
386.10,285.0
386.46,307.0
386.82,300.0
387.18,305.0
387.54,298.0
387.90,294.0
388.26,303.0
388.62,296.0
388.98,285.0
389.34,305.0
389.70,299.0
390.06,269.0
390.42,283.0
390.78,314.0
391.14,343.0
391.50,335.0
391.86,343.0
392.22,362.0
392.58,334.0
392.94,297.0
393.30,312.0
393.66,321.0
394.02,341.0
394.38,295.0
394.74,315.0
395.10,316.0
395.46,340.0
395.82,333.0
396.18,317.0
396.54,356.0
396.90,369.0
397.26,356.0
397.62,362.0
397.98,388.0
398.34,334.0
398.70,340.0
399.05,309.0
399.41,313.0
399.77,339.0
400.13,349.0
400.49,357.0
400.85,348.0
401.21,329.0
401.57,364.0
401.93,341.0
402.29,338.0
402.65,339.0
403.00,359.0
403.36,358.0
403.72,353.0
404.08,403.0
404.44,362.0
404.80,366.0
405.16,370.0
405.52,378.0
405.87,394.0
406.23,380.0
406.59,332.0
406.95,362.0
407.31,369.0
407.67,377.0
408.03,365.0
408.38,372.0
408.74,406.0
409.10,409.0
409.46,375.0
409.82,386.0
410.17,374.0
410.53,362.0
410.89,381.0
411.25,337.0
411.61,351.0
411.97,384.0
412.32,396.0
412.68,397.0
413.04,358.0
413.40,327.0
413.75,362.0
414.11,356.0
414.47,344.0
414.83,402.0
415.19,369.0
415.54,342.0
415.90,379.0
416.26,379.0
416.62,379.0
416.97,346.0
417.33,390.0
417.69,382.0
418.05,367.0
418.40,355.0
418.76,362.0
419.12,406.0
419.48,402.0
419.83,424.0
420.19,388.0
420.55,403.0
420.90,464.0
421.26,425.0
421.62,378.0
421.98,417.0
422.33,445.0
422.69,447.0
423.05,425.0
423.40,378.0
423.76,361.0
424.12,412.0
424.47,399.0
424.83,384.0
425.19,377.0
425.54,386.0
425.90,409.0
426.26,417.0
426.61,446.0
426.97,345.0
427.33,416.0
427.68,403.0
428.04,466.0
428.40,461.0
428.75,500.0
429.11,429.0
429.47,496.0
429.82,499.0
430.18,447.0
430.53,433.0
430.89,418.0
431.25,416.0
431.60,426.0
431.96,415.0
432.31,403.0
432.67,445.0
433.03,476.0
433.38,429.0
433.74,443.0
434.09,435.0
434.45,433.0
434.81,401.0
435.16,443.0
435.52,410.0
435.87,398.0
436.23,395.0
436.58,384.0
436.94,419.0
437.30,438.0
437.65,451.0
438.01,456.0
438.36,418.0
438.72,401.0
439.07,394.0
439.43,410.0
439.78,455.0
440.14,498.0
440.49,440.0
440.85,451.0
441.20,484.0
441.56,438.0
441.91,490.0
442.27,449.0
442.62,448.0
442.98,464.0
443.33,449.0
443.69,458.0
444.04,438.0
444.40,417.0
444.75,461.0
445.11,483.0
445.46,493.0
445.82,489.0
446.17,441.0
446.53,475.0
446.88,514.0
447.23,434.0
447.59,427.0
447.94,434.0
448.30,447.0
448.65,430.0
449.01,473.0
449.36,455.0
449.72,486.0
450.07,522.0
450.42,479.0
450.78,445.0
451.13,485.0
451.49,459.0
451.84,450.0
452.19,420.0
452.55,444.0
452.90,445.0
453.26,487.0
453.61,495.0
453.96,417.0
454.32,481.0
454.67,452.0
455.02,408.0
455.38,434.0
455.73,441.0
456.09,480.0
456.44,475.0
456.79,483.0
457.15,473.0
457.50,454.0
457.85,456.0
458.21,459.0
458.56,456.0
458.91,462.0
459.27,428.0
459.62,444.0
459.97,461.0
460.32,471.0
460.68,442.0
461.03,416.0
461.38,430.0
461.74,473.0
462.09,460.0
462.44,437.0
462.80,471.0
463.15,466.0
463.50,447.0
463.85,487.0
464.21,493.0
464.56,524.0
464.91,470.0
465.26,470.0
465.62,464.0
465.97,491.0
466.32,479.0
466.67,487.0
467.03,471.0
467.38,472.0
467.73,462.0
468.08,486.0
468.44,477.0
468.79,464.0
469.14,454.0
469.49,451.0
469.85,466.0
470.20,506.0
470.55,509.0
470.90,512.0
471.25,469.0
471.61,505.0
471.96,505.0
472.31,530.0
472.66,534.0
473.01,549.0
473.36,555.0
473.72,558.0
474.07,558.0
474.42,580.0
474.77,575.0
475.12,589.0
475.47,590.0
475.83,589.0
476.18,578.0
476.53,577.0
476.88,616.0
477.23,612.0
477.58,597.0
477.93,600.0
478.28,614.0
478.64,632.0
478.99,653.0
479.34,652.0
479.69,656.0
480.04,668.0
480.39,655.0
480.74,656.0
481.09,698.0
481.44,675.0
481.79,670.0
482.15,675.0
482.50,693.0
482.85,698.0
483.20,740.0
483.55,748.0
483.90,777.0
484.25,923.0
484.60,1039.0
484.95,1152.0
485.30,1099.0
485.65,988.0
486.00,910.0
486.35,820.0
486.70,787.0
487.05,787.0
487.40,776.0
487.75,757.0
488.10,768.0
488.45,744.0
488.80,757.0
489.15,770.0
489.50,754.0
489.85,775.0
490.20,760.0
490.55,779.0
490.90,768.0
491.25,773.0
491.60,743.0
491.95,763.0
492.30,778.0
492.65,774.0
493.00,784.0
493.35,784.0
493.70,778.0
494.05,769.0
494.40,782.0
494.75,798.0
495.10,808.0
495.45,818.0
495.80,823.0
496.15,784.0
496.50,783.0
496.84,773.0
497.19,773.0
497.54,778.0
497.89,796.0
498.24,788.0
498.59,812.0
498.94,797.0
499.29,774.0
499.64,791.0
499.99,811.0
500.33,803.0
500.68,801.0
501.03,798.0
501.38,810.0
501.73,813.0
502.08,816.0
502.43,826.0
502.77,817.0
503.12,792.0
503.47,806.0
503.82,814.0
504.17,803.0
504.52,824.0
504.86,809.0
505.21,838.0
505.56,830.0
505.91,815.0
506.26,815.0
506.61,818.0
506.95,803.0
507.30,811.0
507.65,828.0
508.00,812.0
508.35,815.0
508.69,818.0
509.04,807.0
509.39,808.0
509.74,815.0
510.08,812.0
510.43,845.0
510.78,822.0
511.13,812.0
511.47,812.0
511.82,833.0
512.17,823.0
512.52,828.0
512.86,824.0
513.21,809.0
513.56,828.0
513.91,822.0
514.25,830.0
514.60,830.0
514.95,825.0
515.30,828.0
515.64,823.0
515.99,845.0
516.34,823.0
516.68,827.0
517.03,820.0
517.38,835.0
517.72,839.0
518.07,851.0
518.42,853.0
518.76,824.0
519.11,822.0
519.46,825.0
519.80,836.0
520.15,827.0
520.50,843.0
520.84,841.0
521.19,841.0
521.54,840.0
521.88,819.0
522.23,843.0
522.58,851.0
522.92,860.0
523.27,852.0
523.61,850.0
523.96,841.0
524.31,851.0
524.65,871.0
525.00,863.0
525.34,832.0
525.69,845.0
526.04,852.0
526.38,856.0
526.73,848.0
527.07,854.0
527.42,855.0
527.76,875.0
528.11,883.0
528.46,868.0
528.80,863.0
529.15,847.0
529.49,847.0
529.84,853.0
530.18,857.0
530.53,867.0
530.87,862.0
531.22,855.0
531.56,854.0
531.91,868.0
532.25,869.0
532.60,887.0
532.94,885.0
533.29,880.0
533.63,884.0
533.98,880.0
534.32,877.0
534.67,894.0
535.01,891.0
535.36,862.0
535.70,865.0
536.05,871.0
536.39,899.0
536.74,872.0
537.08,877.0
537.43,873.0
537.77,878.0
538.12,905.0
538.46,882.0
538.80,905.0
539.15,879.0
539.49,898.0
539.84,909.0
540.18,898.0
540.53,895.0
540.87,874.0
541.21,898.0
541.56,890.0
541.90,908.0
542.25,902.0
542.59,910.0
542.93,897.0
543.28,907.0
543.62,926.0
543.97,924.0
544.31,910.0
544.65,894.0
545.00,896.0
545.34,901.0
545.68,898.0
546.03,904.0
546.37,918.0
546.71,940.0
547.06,956.0
547.40,956.0
547.74,942.0
548.09,935.0
548.43,922.0
548.77,914.0
549.12,911.0
549.46,895.0
549.80,886.0
550.15,895.0
550.49,905.0
550.83,925.0
551.17,941.0
551.52,920.0
551.86,929.0
552.20,936.0
552.55,932.0
552.89,914.0
553.23,921.0
553.57,934.0
553.92,929.0
554.26,934.0
554.60,948.0
554.94,945.0
555.29,950.0
555.63,947.0
555.97,929.0
556.31,947.0
556.66,937.0
557.00,922.0
557.34,919.0
557.68,933.0
558.02,932.0
558.37,945.0
558.71,926.0
559.05,937.0
559.39,975.0
559.73,978.0
560.08,974.0
560.42,975.0
560.76,963.0
561.10,966.0
561.44,955.0
561.78,960.0
562.13,970.0
562.47,952.0
562.81,965.0
563.15,962.0
563.49,950.0
563.83,959.0
564.17,965.0
564.52,958.0
564.86,978.0
565.20,976.0
565.54,982.0
565.88,982.0
566.22,1001.0
566.56,992.0
566.90,1025.0
567.24,1029.0
567.59,1030.0
567.93,1059.0
568.27,1093.0
568.61,1111.0
568.95,1127.0
569.29,1137.0
569.63,1160.0
569.97,1168.0
570.31,1192.0
570.65,1230.0
570.99,1213.0
571.33,1209.0
571.67,1207.0
572.01,1203.0
572.35,1249.0
572.69,1277.0
573.03,1294.0
573.37,1302.0
573.71,1313.0
574.05,1291.0
574.39,1274.0
574.73,1281.0
575.07,1244.0
575.41,1273.0
575.75,1261.0
576.09,1341.0
576.43,1385.0
576.77,1437.0
577.11,1419.0
577.45,1392.0
577.79,1342.0
578.13,1324.0
578.47,1292.0
578.81,1298.0
579.15,1320.0
579.49,1327.0
579.83,1394.0
580.17,1477.0
580.51,1573.0
580.85,1584.0
581.19,1516.0
581.53,1430.0
581.87,1353.0
582.20,1261.0
582.54,1210.0
582.88,1175.0
583.22,1210.0
583.56,1270.0
583.90,1321.0
584.24,1372.0
584.58,1344.0
584.92,1318.0
585.25,1285.0
585.59,1265.0
585.93,1262.0
586.27,1299.0
586.61,1270.0
586.95,1278.0
587.29,1259.0
587.62,1227.0
587.96,1180.0
588.30,1139.0
588.64,1131.0
588.98,1130.0
589.31,1139.0
589.65,1105.0
589.99,1090.0
590.33,1080.0
590.67,1087.0
591.01,1092.0
591.34,1155.0
591.68,1196.0
592.02,1255.0
592.36,1270.0
592.69,1238.0
593.03,1199.0
593.37,1195.0
593.71,1187.0
594.04,1195.0
594.38,1175.0
594.72,1159.0
595.06,1122.0
595.39,1112.0
595.73,1107.0
596.07,1121.0
596.41,1113.0
596.74,1113.0
597.08,1118.0
597.42,1134.0
597.76,1160.0
598.09,1188.0
598.43,1174.0
598.77,1188.0
599.10,1191.0
599.44,1203.0
599.78,1199.0
600.11,1185.0
600.45,1186.0
600.79,1136.0
601.12,1153.0
601.46,1144.0
601.80,1164.0
602.13,1160.0
602.47,1198.0
602.81,1162.0
603.14,1155.0
603.48,1153.0
603.82,1143.0
604.15,1112.0
604.49,1128.0
604.82,1145.0
605.16,1137.0
605.50,1119.0
605.83,1140.0
606.17,1138.0
606.50,1144.0
606.84,1117.0
607.18,1097.0
607.51,1100.0
607.85,1083.0
608.18,1079.0
608.52,1101.0
608.86,1084.0
609.19,1119.0
609.53,1095.0
609.86,1099.0
610.20,1095.0
610.53,1071.0
610.87,1047.0
611.20,1063.0
611.54,1029.0
611.87,1051.0
612.21,1064.0
612.54,1036.0
612.88,1046.0
613.21,1046.0
613.55,1068.0
613.88,1070.0
614.22,1059.0
614.55,1066.0
614.89,1051.0
615.22,1042.0
615.56,1023.0
615.89,1016.0
616.23,1014.0
616.56,991.0
616.90,997.0
617.23,991.0
617.57,1001.0
617.90,970.0
618.24,976.0
618.57,976.0
618.90,971.0
619.24,967.0
619.57,944.0
619.91,950.0
620.24,907.0
620.58,926.0
620.91,935.0
621.24,935.0
621.58,960.0
621.91,964.0
622.25,974.0
622.58,954.0
622.91,971.0
623.25,925.0
623.58,941.0
623.91,936.0
624.25,922.0
624.58,919.0
624.92,910.0
625.25,897.0
625.58,891.0
625.92,910.0
626.25,901.0
626.58,899.0
626.92,873.0
627.25,889.0
627.58,867.0
627.91,886.0
628.25,895.0
628.58,895.0
628.91,885.0
629.25,871.0
629.58,865.0
629.91,870.0
630.25,861.0
630.58,853.0
630.91,847.0
631.24,833.0
631.58,837.0
631.91,835.0
632.24,806.0
632.57,825.0
632.91,819.0
633.24,812.0
633.57,804.0
633.90,809.0
634.24,813.0
634.57,815.0
634.90,823.0
635.23,819.0
635.56,809.0
635.90,811.0
636.23,817.0
636.56,804.0
636.89,806.0
637.22,818.0
637.56,799.0
637.89,790.0
638.22,808.0
638.55,801.0
638.88,787.0
639.21,786.0
639.55,793.0
639.88,780.0
640.21,770.0
640.54,773.0
640.87,769.0
641.20,763.0
641.53,768.0
641.87,773.0
642.20,770.0
642.53,761.0
642.86,764.0
643.19,774.0
643.52,757.0
643.85,767.0
644.18,760.0
644.51,753.0
644.84,766.0
645.18,760.0
645.51,761.0
645.84,756.0
646.17,739.0
646.50,742.0
646.83,773.0
647.16,756.0
647.49,781.0
647.82,772.0
648.15,780.0
648.48,788.0
648.81,794.0
649.14,766.0
649.47,761.0
649.80,758.0
650.13,752.0
650.46,766.0
650.79,762.0
651.12,773.0
651.45,741.0
651.78,748.0
652.11,749.0
652.44,753.0
652.77,755.0
653.10,747.0
653.43,740.0
653.76,747.0
654.09,785.0
654.42,1267.0
654.75,2140.0
655.08,2656.0
655.41,2858.0
655.74,2320.0
656.07,1929.0
656.39,1605.0
656.72,1358.0
657.05,1085.0
657.38,896.0
657.71,807.0
658.04,775.0
658.37,764.0
658.70,740.0
659.03,720.0
659.36,732.0
659.68,727.0
660.01,731.0
660.34,734.0
660.67,732.0
661.00,727.0
661.33,704.0
661.66,709.0
661.98,717.0
662.31,712.0
662.64,722.0
662.97,735.0
663.30,716.0
663.63,721.0
663.95,713.0
664.28,709.0
664.61,698.0
664.94,697.0
665.27,705.0
665.59,706.0
665.92,703.0
666.25,707.0
666.58,692.0
666.91,701.0
667.23,688.0
667.56,690.0
667.89,698.0
668.22,690.0
668.54,700.0
668.87,718.0
669.20,707.0
669.53,689.0
669.85,688.0
670.18,699.0
670.51,719.0
670.83,719.0
671.16,716.0
671.49,718.0
671.82,726.0
672.14,727.0
672.47,705.0
672.80,690.0
673.12,699.0
673.45,688.0
673.78,679.0
674.10,692.0
674.43,680.0
674.76,668.0
675.08,675.0
675.41,685.0
675.74,686.0
676.06,668.0
676.39,674.0
676.72,680.0
677.04,687.0
677.37,691.0
677.69,686.0
678.02,685.0
678.35,700.0
678.67,674.0
679.00,670.0
679.32,699.0
679.65,665.0
679.98,671.0
680.30,680.0
680.63,676.0
680.95,668.0
681.28,664.0
681.60,654.0
681.93,658.0
682.26,653.0
682.58,642.0
682.91,653.0
683.23,660.0
683.56,653.0
683.88,677.0
684.21,669.0
684.53,678.0
684.86,683.0
685.18,685.0
685.51,672.0
685.83,664.0
686.16,653.0
686.48,651.0
686.81,652.0
687.13,644.0
687.46,643.0
687.78,643.0
688.11,632.0
688.43,643.0
688.76,625.0
689.08,623.0
689.41,620.0
689.73,624.0
690.05,625.0
690.38,621.0
690.70,620.0
691.03,601.0
691.35,618.0
691.68,602.0
692.00,614.0
692.32,621.0
692.65,626.0
692.97,631.0
693.29,608.0
693.62,590.0
693.94,595.0
694.27,594.0
694.59,585.0
694.91,593.0
695.24,598.0
695.56,579.0
695.88,591.0
696.21,579.0
696.53,602.0
696.85,604.0
697.18,612.0
697.50,611.0
697.82,597.0
698.15,593.0
698.47,589.0
698.79,583.0
699.12,585.0
699.44,562.0
699.76,563.0
700.09,555.0
700.41,551.0
700.73,557.0
701.05,566.0
701.38,558.0
701.70,556.0
702.02,561.0
702.34,557.0
702.67,563.0
702.99,548.0
703.31,546.0
703.63,554.0
703.96,540.0
704.28,547.0
704.60,544.0
704.92,552.0
705.25,550.0
705.57,539.0
705.89,559.0
706.21,561.0
706.53,571.0
706.86,561.0
707.18,562.0
707.50,572.0
707.82,556.0
708.14,562.0
708.46,560.0
708.79,553.0
709.11,559.0
709.43,547.0
709.75,548.0
710.07,548.0
710.39,545.0
710.71,544.0
711.04,547.0
711.36,542.0
711.68,532.0
712.00,536.0
712.32,552.0
712.64,527.0
712.96,550.0
713.28,536.0
713.60,541.0
713.92,540.0
714.24,544.0
714.57,531.0
714.89,529.0
715.21,526.0
715.53,516.0
715.85,519.0
716.17,515.0
716.49,508.0
716.81,516.0
717.13,528.0
717.45,520.0
717.77,510.0
718.09,506.0
718.41,515.0
718.73,507.0
719.05,497.0
719.37,508.0
719.69,512.0
720.01,504.0
720.33,501.0
720.65,504.0
720.97,495.0
721.29,486.0
721.61,501.0
721.93,497.0
722.25,497.0
722.57,495.0
722.89,496.0
723.21,481.0
723.52,481.0
723.84,479.0
724.16,499.0
724.48,482.0
724.80,502.0
725.12,495.0
725.44,492.0
725.76,478.0
726.08,488.0
726.40,481.0
726.72,475.0
727.03,482.0
727.35,473.0
727.67,471.0
727.99,489.0
728.31,484.0
728.63,479.0
728.95,489.0
729.26,474.0
729.58,486.0
729.90,483.0
730.22,478.0
730.54,489.0
730.86,491.0
731.17,496.0
731.49,486.0
731.81,485.0
732.13,490.0
732.45,472.0
732.76,476.0
733.08,469.0
733.40,479.0
733.72,462.0
734.03,471.0
734.35,469.0
734.67,464.0
734.99,466.0
735.30,469.0
735.62,461.0
735.94,462.0
736.26,455.0
736.57,450.0
736.89,459.0
737.21,444.0
737.53,439.0
737.84,436.0
738.16,431.0
738.48,437.0
738.79,451.0
739.11,451.0
739.43,442.0
739.74,441.0
740.06,430.0
740.38,421.0
740.69,425.0
741.01,421.0
741.33,411.0
741.64,411.0
741.96,406.0
742.28,415.0
742.59,412.0
742.91,404.0
743.23,403.0
743.54,395.0
743.86,394.0
744.17,391.0
744.49,388.0
744.81,392.0
745.12,397.0
745.44,388.0
745.75,384.0
746.07,392.0
746.38,388.0
746.70,392.0
747.02,390.0
747.33,387.0
747.65,383.0
747.96,387.0
748.28,381.0
748.59,383.0
748.91,389.0
749.22,382.0
749.54,386.0
749.85,380.0
750.17,397.0
750.48,388.0
750.80,378.0
751.11,371.0
751.43,368.0
751.74,380.0
752.06,368.0
752.37,374.0
752.69,366.0
753.00,382.0
753.32,383.0
753.63,379.0
753.95,376.0
754.26,371.0
754.58,365.0
754.89,368.0
755.20,369.0
755.52,373.0
755.83,376.0
756.15,387.0
756.46,394.0
756.78,393.0
757.09,399.0
757.40,403.0
757.72,388.0
758.03,379.0
758.34,379.0
758.66,386.0
758.97,380.0
759.29,393.0
759.60,401.0
759.91,378.0
760.23,385.0
760.54,387.0
760.85,363.0
761.17,369.0
761.48,362.0
761.79,362.0
762.11,350.0
762.42,359.0
762.73,354.0
763.05,363.0
763.36,363.0
763.67,366.0
763.98,367.0
764.30,365.0
764.61,375.0
764.92,372.0
765.23,362.0
765.55,353.0
765.86,346.0
766.17,344.0
766.48,336.0
766.80,333.0
767.11,340.0
767.42,335.0
767.73,342.0
768.05,341.0
768.36,354.0
768.67,347.0
768.98,343.0
769.29,345.0
769.61,347.0
769.92,337.0
770.23,338.0
770.54,327.0
770.85,332.0
771.17,333.0
771.48,326.0
771.79,317.0
772.10,321.0
772.41,326.0
772.72,311.0
773.03,313.0
773.35,312.0
773.66,307.0
773.97,310.0
774.28,303.0
774.59,300.0
774.90,299.0
775.21,305.0
775.52,306.0
775.83,296.0
776.15,290.0
776.46,289.0
776.77,295.0
777.08,291.0
777.39,295.0
777.70,294.0
778.01,296.0
778.32,298.0
778.63,303.0
778.94,296.0
779.25,301.0
779.56,294.0
779.87,291.0
780.18,287.0
780.49,294.0
780.80,303.0
781.11,293.0
781.42,294.0
781.73,293.0
782.04,281.0
782.35,286.0
782.66,280.0
782.97,287.0
783.28,278.0
783.59,278.0
783.90,277.0
784.21,269.0
784.52,263.0
784.83,266.0
785.14,272.0
785.45,276.0
785.76,267.0
786.06,262.0
786.37,266.0
786.68,267.0
786.99,257.0
787.30,263.0
787.61,266.0
787.92,263.0
788.23,264.0
788.54,256.0
788.84,263.0
789.15,263.0
789.46,256.0
789.77,246.0
790.08,249.0
790.39,243.0
790.70,252.0
791.00,244.0
791.31,236.0
791.62,252.0
791.93,233.0
792.24,246.0
792.54,240.0
792.85,242.0
793.16,237.0
793.47,253.0
793.78,260.0
794.08,253.0
794.39,254.0
794.70,254.0
795.01,254.0
795.31,240.0
795.62,228.0
795.93,227.0
796.24,233.0
796.54,226.0
796.85,231.0
797.16,226.0
797.47,224.0
797.77,222.0
798.08,225.0
798.39,233.0
798.69,224.0
799.00,221.0
799.31,217.0
799.62,210.0
799.92,215.0
800.23,215.0
800.54,214.0
800.84,210.0
801.15,213.0
801.46,215.0
801.76,208.0
802.07,210.0
802.37,203.0
802.68,199.0
802.99,201.0
803.29,202.0
803.60,206.0
803.91,200.0
804.21,203.0
804.52,205.0
804.82,200.0
805.13,206.0
805.44,209.0
805.74,209.0
806.05,214.0
806.35,205.0
806.66,204.0
806.96,204.0
807.27,198.0
807.57,197.0
807.88,197.0
808.19,201.0
808.49,192.0
808.80,198.0
809.10,198.0
809.41,191.0
809.71,190.0
810.02,189.0
810.32,181.0
810.63,183.0
810.93,183.0
811.24,189.0
811.54,186.0
811.85,181.0
812.15,183.0
812.45,182.0
812.76,181.0
813.06,183.0
813.37,186.0
813.67,183.0
813.98,182.0
814.28,177.0
814.58,174.0
814.89,172.0
815.19,173.0
815.50,174.0
815.80,177.0
816.11,181.0
816.41,170.0
816.71,176.0
817.02,174.0
817.32,183.0
817.62,174.0
817.93,169.0
818.23,171.0
818.53,167.0
818.84,169.0
819.14,169.0
819.44,171.0
819.75,173.0
820.05,169.0
820.35,170.0
820.66,173.0
820.96,170.0
821.26,163.0
821.57,166.0
821.87,166.0
822.17,161.0
822.48,166.0
822.78,160.0
823.08,157.0
823.38,166.0
823.69,158.0
823.99,166.0
824.29,155.0
824.59,156.0
824.90,155.0
825.20,162.0
825.50,159.0
825.80,160.0
826.10,153.0
826.41,154.0
826.71,151.0
827.01,153.0
827.31,158.0
827.61,161.0
827.92,155.0
828.22,159.0
828.52,149.0
828.82,156.0
829.12,143.0
829.42,149.0
829.73,144.0
830.03,138.0
830.33,144.0
830.63,148.0
830.93,147.0
831.23,147.0
831.53,144.0
831.83,148.0
832.14,145.0
832.44,146.0
832.74,142.0
833.04,151.0
833.34,144.0
833.64,144.0
833.94,144.0
834.24,150.0
834.54,151.0
834.84,144.0
835.14,134.0
835.44,140.0
835.74,139.0
836.04,147.0
836.34,141.0
836.64,147.0
836.95,145.0
837.25,139.0
837.55,140.0
837.85,135.0
838.15,137.0
838.45,136.0
838.74,141.0
839.04,133.0
839.34,129.0
839.64,128.0
839.94,130.0
840.24,136.0
840.54,136.0
840.84,129.0
841.14,129.0
841.44,133.0
841.74,133.0
842.04,130.0
842.34,131.0
842.64,131.0
842.94,128.0
843.24,126.0
843.53,132.0
843.83,129.0
844.13,127.0
844.43,128.0
844.73,130.0
845.03,127.0
845.33,125.0
845.63,124.0
845.92,121.0
846.22,125.0
846.52,118.0
846.82,123.0
847.12,122.0
847.42,124.0
847.71,125.0
848.01,123.0
848.31,123.0
848.61,119.0
848.91,127.0
849.20,130.0
849.50,122.0
849.80,120.0
850.10,119.0
850.39,120.0
850.69,123.0
850.99,126.0
851.29,120.0
851.59,122.0
851.88,121.0
852.18,119.0
852.48,121.0
852.77,125.0
853.07,121.0
853.37,121.0
853.67,124.0
853.96,123.0
854.26,127.0
854.56,118.0
854.85,118.0
855.15,117.0
855.45,123.0
855.74,114.0
856.04,118.0
856.34,119.0
856.63,115.0
856.93,117.0
857.23,110.0
857.52,112.0
857.82,116.0
858.11,121.0
858.41,127.0
858.71,115.0
859.00,114.0
859.30,110.0
859.59,108.0
859.89,114.0
860.19,108.0
860.48,107.0
860.78,108.0
861.07,109.0
861.37,109.0
861.66,110.0
861.96,104.0
862.26,114.0
862.55,110.0
862.85,107.0
863.14,111.0
863.44,108.0
863.73,109.0
864.03,108.0
864.32,108.0
864.62,107.0
864.91,105.0
865.21,106.0
865.50,105.0
865.80,108.0
866.09,106.0
866.39,106.0
866.68,104.0
866.97,98.0
867.27,103.0
867.56,106.0
867.86,106.0
868.15,104.0
868.45,100.0
868.74,105.0
869.03,107.0
869.33,99.0
869.62,102.0
869.92,100.0
870.21,99.0
870.50,99.0
870.80,98.0
871.09,97.0
871.39,97.0
871.68,100.0
871.97,98.0
872.27,100.0
872.56,96.0
872.85,101.0
873.15,102.0
873.44,96.0
873.73,99.0
874.03,96.0
874.32,95.0
874.61,98.0
874.90,100.0
875.20,95.0
875.49,102.0
875.78,95.0
