Wavelength,Intensity
179.38,0.0
179.75,55.0
180.13,63.0
180.51,59.0
180.88,52.0
181.26,60.0
181.64,57.0
182.02,56.0
182.39,59.0
182.77,59.0
183.15,60.0
183.52,58.0
183.90,53.0
184.28,56.0
184.65,53.0
185.03,56.0
185.41,56.0
185.78,58.0
186.16,57.0
186.53,57.0
186.91,52.0
187.29,55.0
187.66,57.0
188.04,60.0
188.42,56.0
188.79,58.0
189.17,58.0
189.55,58.0
189.92,56.0
190.30,57.0
190.67,57.0
191.05,55.0
191.43,54.0
191.80,57.0
192.18,54.0
192.56,55.0
192.93,59.0
193.31,57.0
193.68,56.0
194.06,61.0
194.44,60.0
194.81,53.0
195.19,53.0
195.56,55.0
195.94,61.0
196.32,60.0
196.69,53.0
197.07,59.0
197.44,60.0
197.82,60.0
198.19,58.0
198.57,58.0
198.95,54.0
199.32,56.0
199.70,58.0
200.07,58.0
200.45,60.0
200.82,56.0
201.20,55.0
201.57,57.0
201.95,58.0
202.33,59.0
202.70,57.0
203.08,55.0
203.45,56.0
203.83,55.0
204.20,53.0
204.58,58.0
204.95,59.0
205.33,62.0
205.70,52.0
206.08,55.0
206.45,60.0
206.83,57.0
207.20,62.0
207.58,57.0
207.95,54.0
208.33,55.0
208.70,59.0
209.08,59.0
209.45,52.0
209.83,58.0
210.20,57.0
210.58,58.0
210.95,59.0
211.33,57.0
211.70,58.0
212.08,60.0
212.45,57.0
212.83,61.0
213.20,58.0
213.58,60.0
213.95,59.0
214.33,56.0
214.70,58.0
215.07,57.0
215.45,58.0
215.82,58.0
216.20,58.0
216.57,54.0
216.95,59.0
217.32,61.0
217.70,58.0
218.07,61.0
218.44,58.0
218.82,61.0
219.19,57.0
219.57,61.0
219.94,54.0
220.32,59.0
220.69,63.0
221.06,55.0
221.44,57.0
221.81,55.0
222.19,58.0
222.56,55.0
222.93,58.0
223.31,56.0
223.68,60.0
224.06,58.0
224.43,59.0
224.80,56.0
225.18,59.0
225.55,55.0
225.92,58.0
226.30,58.0
226.67,57.0
227.05,61.0
227.42,58.0
227.79,59.0
228.17,56.0
228.54,60.0
228.91,62.0
229.29,59.0
229.66,54.0
230.03,58.0
230.41,54.0
230.78,59.0
231.15,59.0
231.53,57.0
231.90,57.0
232.27,58.0
232.65,58.0
233.02,61.0
233.39,57.0
233.77,60.0
234.14,60.0
234.51,63.0
234.89,62.0
235.26,54.0
235.63,59.0
236.01,55.0
236.38,63.0
236.75,60.0
237.12,55.0
237.50,57.0
237.87,56.0
238.24,55.0
238.62,61.0
238.99,55.0
239.36,59.0
239.73,54.0
240.11,59.0
240.48,60.0
240.85,55.0
241.23,57.0
241.60,59.0
241.97,61.0
242.34,61.0
242.72,58.0
243.09,55.0
243.46,55.0
243.83,57.0
244.21,57.0
244.58,58.0
244.95,57.0
245.32,57.0
245.70,61.0
246.07,60.0
246.44,58.0
246.81,57.0
247.18,59.0
247.56,58.0
247.93,62.0
248.30,58.0
248.67,55.0
249.04,57.0
249.42,55.0
249.79,57.0
250.16,56.0
250.53,56.0
250.90,62.0
251.28,56.0
251.65,58.0
252.02,59.0
252.39,53.0
252.76,58.0
253.14,57.0
253.51,59.0
253.88,56.0
254.25,62.0
254.62,53.0
254.99,61.0
255.37,58.0
255.74,55.0
256.11,61.0
256.48,58.0
256.85,57.0
257.22,61.0
257.59,56.0
257.97,59.0
258.34,60.0
258.71,60.0
259.08,55.0
259.45,56.0
259.82,56.0
260.19,60.0
260.56,62.0
260.94,61.0
261.31,60.0
261.68,54.0
262.05,58.0
262.42,59.0
262.79,57.0
263.16,64.0
263.53,55.0
263.90,53.0
264.28,59.0
264.65,56.0
265.02,58.0
265.39,59.0
265.76,63.0
266.13,59.0
266.50,56.0
266.87,58.0
267.24,63.0
267.61,58.0
267.98,60.0
268.35,61.0
268.72,61.0
269.09,58.0
269.46,59.0
269.84,60.0
270.21,60.0
270.58,59.0
270.95,60.0
271.32,65.0
271.69,56.0
272.06,65.0
272.43,64.0
272.80,65.0
273.17,62.0
273.54,65.0
273.91,62.0
274.28,62.0
274.65,62.0
275.02,62.0
275.39,69.0
275.76,62.0
276.13,62.0
276.50,65.0
276.87,57.0
277.24,65.0
277.61,63.0
277.98,62.0
278.35,61.0
278.72,63.0
279.09,60.0
279.46,65.0
279.83,56.0
280.20,64.0
280.57,62.0
280.94,66.0
281.31,60.0
281.67,63.0
282.04,64.0
282.41,61.0
282.78,66.0
283.15,64.0
283.52,64.0
283.89,66.0
284.26,61.0
284.63,63.0
285.00,63.0
285.37,67.0
285.74,67.0
286.11,65.0
286.48,67.0
286.85,62.0
287.21,68.0
287.58,63.0
287.95,63.0
288.32,59.0
288.69,63.0
289.06,68.0
289.43,60.0
289.80,64.0
290.17,65.0
290.54,69.0
290.90,68.0
291.27,62.0
291.64,65.0
292.01,64.0
292.38,63.0
292.75,67.0
293.12,69.0
293.48,69.0
293.85,66.0
294.22,65.0
294.59,64.0
294.96,65.0
295.33,64.0
295.70,64.0
296.06,62.0
296.43,67.0
296.80,65.0
297.17,67.0
297.54,66.0
297.91,64.0
298.27,67.0
298.64,67.0
299.01,66.0
299.38,66.0
299.75,66.0
300.11,69.0
300.48,67.0
300.85,65.0
301.22,67.0
301.59,65.0
301.95,68.0
302.32,61.0
302.69,63.0
303.06,69.0
303.43,66.0
303.79,70.0
304.16,67.0
304.53,68.0
304.90,69.0
305.26,70.0
305.63,70.0
306.00,69.0
306.37,67.0
306.73,68.0
307.10,65.0
307.47,66.0
307.84,69.0
308.20,65.0
308.57,71.0
308.94,66.0
309.31,66.0
309.67,67.0
310.04,69.0
310.41,70.0
310.77,69.0
311.14,66.0
311.51,69.0
311.88,73.0
312.24,69.0
312.61,68.0
312.98,71.0
313.34,69.0
313.71,66.0
314.08,72.0
314.44,70.0
314.81,65.0
315.18,67.0
315.55,65.0
315.91,68.0
316.28,68.0
316.65,75.0
317.01,70.0
317.38,68.0
317.75,68.0
318.11,64.0
318.48,68.0
318.84,71.0
319.21,70.0
319.58,71.0
319.94,69.0
320.31,71.0
320.68,67.0
321.04,72.0
321.41,68.0
321.78,69.0
322.14,66.0
322.51,70.0
322.87,67.0
323.24,70.0
323.61,74.0
323.97,68.0
324.34,70.0
324.70,74.0
325.07,76.0
325.44,73.0
325.80,69.0
326.17,71.0
326.53,73.0
326.90,69.0
327.27,70.0
327.63,72.0
328.00,73.0
328.36,70.0
328.73,75.0
329.09,70.0
329.46,70.0
329.83,69.0
330.19,73.0
330.56,70.0
330.92,69.0
331.29,74.0
331.65,67.0
332.02,69.0
332.38,69.0
332.75,71.0
333.11,72.0
333.48,74.0
333.84,72.0
334.21,72.0
334.58,76.0
334.94,70.0
335.31,76.0
335.67,76.0
336.04,71.0
336.40,72.0
336.77,71.0
337.13,73.0
337.50,74.0
337.86,75.0
338.22,73.0
338.59,68.0
338.95,69.0
339.32,76.0
339.68,74.0
340.05,76.0
340.41,76.0
340.78,73.0
341.14,73.0
341.51,71.0
341.87,76.0
342.24,72.0
342.60,76.0
342.96,78.0
343.33,78.0
343.69,76.0
344.06,79.0
344.42,78.0
344.79,75.0
345.15,75.0
345.51,77.0
345.88,75.0
346.24,75.0
346.61,77.0
346.97,76.0
347.34,76.0
347.70,81.0
348.06,81.0
348.43,84.0
348.79,81.0
349.16,80.0
349.52,81.0
349.88,79.0
350.25,78.0
350.61,78.0
350.97,79.0
351.34,84.0
351.70,81.0
352.07,83.0
352.43,78.0
352.79,76.0
353.16,78.0
353.52,76.0
353.88,79.0
354.25,84.0
354.61,83.0
354.97,78.0
355.34,81.0
355.70,83.0
356.06,80.0
356.43,82.0
356.79,79.0
357.15,81.0
357.52,78.0
357.88,84.0
358.24,84.0
358.60,84.0
358.97,82.0
359.33,83.0
359.69,82.0
360.06,84.0
360.42,84.0
360.78,84.0
361.14,86.0
361.51,83.0
361.87,87.0
362.23,86.0
362.60,89.0
362.96,83.0
363.32,89.0
363.68,89.0
364.05,92.0
364.41,86.0
364.77,93.0
365.13,91.0
365.50,88.0
365.86,91.0
366.22,91.0
366.58,93.0
366.95,94.0
367.31,90.0
367.67,95.0
368.03,91.0
368.39,90.0
368.76,88.0
369.12,91.0
369.48,91.0
369.84,100.0
370.20,96.0
370.57,101.0
370.93,97.0
371.29,97.0
371.65,95.0
372.01,103.0
372.38,98.0
372.74,95.0
373.10,96.0
373.46,98.0
373.82,97.0
374.18,94.0
374.55,101.0
374.91,94.0
375.27,106.0
375.63,97.0
375.99,99.0
376.35,99.0
376.71,98.0
377.08,104.0
377.44,100.0
377.80,110.0
378.16,109.0
378.52,101.0
378.88,107.0
379.24,103.0
379.60,111.0
379.97,115.0
380.33,109.0
380.69,105.0
381.05,108.0
381.41,111.0
381.77,107.0
382.13,110.0
382.49,110.0
382.85,109.0
383.21,109.0
383.57,100.0
383.94,110.0
384.30,110.0
384.66,116.0
385.02,109.0
385.38,114.0
385.74,109.0
386.10,107.0
386.46,112.0
386.82,122.0
387.18,121.0
387.54,117.0
387.90,115.0
388.26,120.0
388.62,113.0
388.98,114.0
389.34,118.0
389.70,117.0
390.06,113.0
390.42,113.0
390.78,118.0
391.14,126.0
391.50,123.0
391.86,131.0
392.22,131.0
392.58,129.0
392.94,115.0
393.30,117.0
393.66,122.0
394.02,127.0
394.38,118.0
394.74,123.0
395.10,121.0
395.46,122.0
395.82,127.0
396.18,120.0
396.54,135.0
396.90,136.0
397.26,132.0
397.62,125.0
397.98,126.0
398.34,129.0
398.70,132.0
399.05,118.0
399.41,118.0
399.77,126.0
400.13,130.0
400.49,125.0
400.85,131.0
401.21,126.0
401.57,132.0
401.93,125.0
402.29,131.0
402.65,127.0
403.00,127.0
403.36,129.0
403.72,134.0
404.08,150.0
404.44,130.0
404.80,133.0
405.16,135.0
405.52,132.0
405.87,138.0
406.23,139.0
406.59,130.0
406.95,132.0
407.31,128.0
407.67,132.0
408.03,138.0
408.38,139.0
408.74,148.0
409.10,149.0
409.46,131.0
409.82,143.0
410.17,145.0
410.53,139.0
410.89,143.0
411.25,128.0
411.61,133.0
411.97,147.0
412.32,142.0
412.68,146.0
413.04,131.0
413.40,130.0
413.75,137.0
414.11,134.0
414.47,129.0
414.83,149.0
415.19,139.0
415.54,132.0
415.90,141.0
416.26,142.0
416.62,146.0
416.97,125.0
417.33,143.0
417.69,145.0
418.05,149.0
418.40,131.0
418.76,137.0
419.12,144.0
419.48,146.0
419.83,156.0
420.19,143.0
420.55,151.0
420.90,165.0
421.26,159.0
421.62,141.0
421.98,161.0
422.33,159.0
422.69,163.0
423.05,157.0
423.40,146.0
423.76,138.0
424.12,153.0
424.47,156.0
424.83,144.0
425.19,141.0
425.54,140.0
425.90,155.0
426.26,158.0
426.61,159.0
426.97,134.0
427.33,155.0
427.68,151.0
428.04,165.0
428.40,171.0
428.75,171.0
429.11,160.0
429.47,177.0
429.82,180.0
430.18,166.0
430.53,161.0
430.89,155.0
431.25,152.0
431.60,159.0
431.96,160.0
432.31,156.0
432.67,165.0
433.03,171.0
433.38,162.0
433.74,167.0
434.09,163.0
434.45,167.0
434.81,150.0
435.16,160.0
435.52,151.0
435.87,154.0
436.23,153.0
436.58,152.0
436.94,157.0
437.30,168.0
437.65,171.0
438.01,169.0
438.36,160.0
438.72,163.0
439.07,153.0
439.43,157.0
439.78,170.0
440.14,183.0
440.49,171.0
440.85,172.0
441.20,174.0
441.56,170.0
441.91,176.0
442.27,168.0
442.62,167.0
442.98,176.0
443.33,165.0
443.69,168.0
444.04,172.0
444.40,157.0
444.75,179.0
445.11,186.0
445.46,180.0
445.82,177.0
446.17,166.0
446.53,177.0
446.88,187.0
447.23,165.0
447.59,174.0
447.94,167.0
448.30,171.0
448.65,168.0
449.01,180.0
449.36,187.0
449.72,184.0
450.07,188.0
450.42,179.0
450.78,181.0
451.13,186.0
451.49,172.0
451.84,175.0
452.19,166.0
452.55,163.0
452.90,178.0
453.26,178.0
453.61,193.0
453.96,167.0
454.32,183.0
454.67,179.0
455.02,159.0
455.38,174.0
455.73,177.0
456.09,190.0
456.44,188.0
456.79,186.0
457.15,172.0
457.50,182.0
457.85,182.0
458.21,183.0
458.56,182.0
458.91,181.0
459.27,175.0
459.62,180.0
459.97,178.0
460.32,179.0
460.68,175.0
461.03,176.0
461.38,175.0
461.74,189.0
462.09,179.0
462.44,174.0
462.80,187.0
463.15,181.0
463.50,184.0
463.85,195.0
464.21,195.0
464.56,204.0
464.91,187.0
465.26,175.0
465.62,189.0
465.97,200.0
466.32,190.0
466.67,188.0
467.03,187.0
467.38,187.0
467.73,188.0
468.08,191.0
468.44,194.0
468.79,184.0
469.14,182.0
469.49,186.0
469.85,187.0
470.20,211.0
470.55,205.0
470.90,197.0
471.25,195.0
471.61,206.0
471.96,206.0
472.31,216.0
472.66,215.0
473.01,210.0
473.36,227.0
473.72,226.0
474.07,218.0
474.42,229.0
474.77,227.0
475.12,228.0
475.47,238.0
475.83,240.0
476.18,226.0
476.53,229.0
476.88,245.0
477.23,238.0
477.58,240.0
477.93,237.0
478.28,240.0
478.64,241.0
478.99,245.0
479.34,261.0
479.69,254.0
480.04,261.0
480.39,270.0
480.74,259.0
481.09,271.0
481.44,262.0
481.79,272.0
482.15,268.0
482.50,268.0
482.85,279.0
483.20,294.0
483.55,298.0
483.90,310.0
484.25,349.0
484.60,374.0
484.95,404.0
485.30,398.0
485.65,354.0
486.00,344.0
486.35,314.0
486.70,302.0
487.05,317.0
487.40,297.0
487.75,295.0
488.10,295.0
488.45,300.0
488.80,293.0
489.15,303.0
489.50,302.0
489.85,306.0
490.20,302.0
490.55,308.0
490.90,311.0
491.25,307.0
491.60,295.0
491.95,300.0
492.30,311.0
492.65,307.0
493.00,309.0
493.35,307.0
493.70,310.0
494.05,303.0
494.40,322.0
494.75,320.0
495.10,312.0
495.45,325.0
495.80,314.0
496.15,319.0
496.50,314.0
496.84,309.0
497.19,313.0
497.54,314.0
497.89,319.0
498.24,317.0
498.59,331.0
498.94,311.0
499.29,313.0
499.64,318.0
499.99,321.0
500.33,323.0
500.68,324.0
501.03,325.0
501.38,320.0
501.73,321.0
502.08,331.0
502.43,335.0
502.77,330.0
503.12,325.0
503.47,323.0
503.82,324.0
504.17,321.0
504.52,325.0
504.86,338.0
505.21,338.0
505.56,332.0
505.91,331.0
506.26,323.0
506.61,331.0
506.95,332.0
507.30,331.0
507.65,333.0
508.00,327.0
508.35,331.0
508.69,333.0
509.04,328.0
509.39,324.0
509.74,325.0
510.08,332.0
510.43,335.0
510.78,341.0
511.13,333.0
511.47,332.0
511.82,340.0
512.17,338.0
512.52,331.0
512.86,335.0
513.21,339.0
513.56,337.0
513.91,341.0
514.25,338.0
514.60,338.0
514.95,339.0
515.30,346.0
515.64,337.0
515.99,336.0
516.34,342.0
516.68,343.0
517.03,334.0
517.38,347.0
517.72,344.0
518.07,347.0
518.42,346.0
518.76,354.0
519.11,339.0
519.46,346.0
519.80,345.0
520.15,347.0
520.50,340.0
520.84,344.0
521.19,350.0
521.54,357.0
521.88,354.0
522.23,345.0
522.58,336.0
522.92,351.0
523.27,352.0
523.61,348.0
523.96,351.0
524.31,357.0
524.65,362.0
525.00,355.0
525.34,350.0
525.69,353.0
526.04,359.0
526.38,355.0
526.73,353.0
527.07,358.0
527.42,361.0
527.76,369.0
528.11,358.0
528.46,368.0
528.80,367.0
529.15,356.0
529.49,347.0
529.84,351.0
530.18,353.0
530.53,357.0
530.87,355.0
531.22,363.0
531.56,370.0
531.91,360.0
532.25,359.0
532.60,367.0
532.94,365.0
533.29,363.0
533.63,366.0
533.98,368.0
534.32,366.0
534.67,374.0
535.01,359.0
535.36,365.0
535.70,364.0
536.05,367.0
536.39,371.0
536.74,366.0
537.08,365.0
537.43,369.0
537.77,383.0
538.12,372.0
538.46,373.0
538.80,378.0
539.15,363.0
539.49,378.0
539.84,379.0
540.18,376.0
540.53,384.0
540.87,378.0
541.21,381.0
541.56,376.0
541.90,373.0
542.25,384.0
542.59,375.0
542.93,376.0
543.28,380.0
543.62,373.0
543.97,382.0
544.31,384.0
544.65,384.0
545.00,387.0
545.34,386.0
545.68,381.0
546.03,376.0
546.37,392.0
546.71,401.0
547.06,399.0
547.40,395.0
547.74,387.0
548.09,383.0
548.43,388.0
548.77,377.0
549.12,375.0
549.46,380.0
549.80,387.0
550.15,380.0
550.49,386.0
550.83,393.0
551.17,392.0
551.52,396.0
551.86,391.0
552.20,389.0
552.55,384.0
552.89,400.0
553.23,385.0
553.57,391.0
553.92,396.0
554.26,406.0
554.60,395.0
554.94,401.0
555.29,404.0
555.63,405.0
555.97,398.0
556.31,404.0
556.66,399.0
557.00,386.0
557.34,398.0
557.68,392.0
558.02,389.0
558.37,395.0
558.71,397.0
559.05,416.0
559.39,419.0
559.73,428.0
560.08,417.0
560.42,411.0
560.76,413.0
561.10,403.0
561.44,404.0
561.78,417.0
562.13,420.0
562.47,415.0
562.81,424.0
563.15,417.0
563.49,427.0
563.83,419.0
564.17,422.0
564.52,414.0
564.86,417.0
565.20,415.0
565.54,419.0
565.88,423.0
566.22,422.0
566.56,441.0
566.90,438.0
567.24,448.0
567.59,448.0
567.93,458.0
568.27,474.0
568.61,491.0
568.95,484.0
569.29,478.0
569.63,499.0
569.97,514.0
570.31,508.0
570.65,524.0
570.99,516.0
571.33,512.0
571.67,519.0
572.01,527.0
572.35,525.0
572.69,543.0
573.03,550.0
573.37,567.0
573.71,572.0
574.05,562.0
574.39,551.0
574.73,551.0
575.07,544.0
575.41,557.0
575.75,567.0
576.09,584.0
576.43,608.0
576.77,622.0
577.11,624.0
577.45,608.0
577.79,593.0
578.13,590.0
578.47,576.0
578.81,584.0
579.15,574.0
579.49,582.0
579.83,623.0
580.17,654.0
580.51,692.0
580.85,694.0
581.19,660.0
581.53,648.0
581.87,596.0
582.20,570.0
582.54,554.0
582.88,551.0
583.22,556.0
583.56,577.0
583.90,604.0
584.24,626.0
584.58,609.0
584.92,592.0
585.25,587.0
585.59,576.0
585.93,579.0
586.27,587.0
586.61,597.0
586.95,588.0
587.29,579.0
587.62,575.0
587.96,551.0
588.30,538.0
588.64,539.0
588.98,537.0
589.31,533.0
589.65,527.0
589.99,519.0
590.33,509.0
590.67,504.0
591.01,523.0
591.34,532.0
591.68,572.0
592.02,599.0
592.36,581.0
592.69,585.0
593.03,567.0
593.37,557.0
593.71,564.0
594.04,576.0
594.38,570.0
594.72,544.0
595.06,547.0
595.39,552.0
595.73,546.0
596.07,549.0
596.41,549.0
596.74,543.0
597.08,543.0
597.42,561.0
597.76,569.0
598.09,581.0
598.43,572.0
598.77,569.0
599.10,584.0
599.44,582.0
599.78,579.0
600.11,573.0
600.45,587.0
600.79,578.0
601.12,565.0
601.46,566.0
601.80,582.0
602.13,570.0
602.47,589.0
602.81,586.0
603.14,562.0
603.48,568.0
603.82,563.0
604.15,551.0
604.49,559.0
604.82,562.0
605.16,555.0
605.50,545.0
605.83,567.0
606.17,575.0
606.50,574.0
606.84,558.0
607.18,575.0
607.51,555.0
607.85,564.0
608.18,545.0
608.52,554.0
608.86,552.0
609.19,556.0
609.53,549.0
609.86,550.0
610.20,558.0
610.53,553.0
610.87,536.0
611.20,542.0
611.54,539.0
611.87,533.0
612.21,539.0
612.54,542.0
612.88,545.0
613.21,543.0
613.55,542.0
613.88,554.0
614.22,550.0
614.55,553.0
614.89,547.0
615.22,531.0
615.56,527.0
615.89,519.0
616.23,525.0
616.56,515.0
616.90,525.0
617.23,520.0
617.57,513.0
617.90,506.0
618.24,505.0
618.57,509.0
618.90,505.0
619.24,514.0
619.57,501.0
619.91,502.0
620.24,498.0
620.58,491.0
620.91,502.0
621.24,509.0
621.58,514.0
621.91,497.0
622.25,496.0
622.58,514.0
622.91,513.0
623.25,501.0
623.58,505.0
623.91,483.0
624.25,508.0
624.58,495.0
624.92,485.0
625.25,485.0
625.58,477.0
625.92,488.0
626.25,483.0
626.58,487.0
626.92,476.0
627.25,473.0
627.58,463.0
627.91,484.0
628.25,472.0
628.58,476.0
628.91,476.0
629.25,479.0
629.58,464.0
629.91,474.0
630.25,478.0
630.58,468.0
630.91,461.0
631.24,456.0
631.58,460.0
631.91,458.0
632.24,447.0
632.57,458.0
632.91,459.0
633.24,457.0
633.57,448.0
633.90,443.0
634.24,459.0
634.57,449.0
634.90,450.0
635.23,450.0
635.56,458.0
635.90,463.0
636.23,452.0
636.56,455.0
636.89,455.0
637.22,445.0
637.56,450.0
637.89,440.0
638.22,452.0
638.55,453.0
638.88,438.0
639.21,448.0
639.55,456.0
639.88,435.0
640.21,434.0
640.54,433.0
640.87,435.0
641.20,436.0
641.53,436.0
641.87,427.0
642.20,434.0
642.53,431.0
642.86,427.0
643.19,441.0
643.52,430.0
643.85,428.0
644.18,429.0
644.51,421.0
644.84,423.0
645.18,425.0
645.51,433.0
645.84,430.0
646.17,430.0
646.50,427.0
646.83,436.0
647.16,429.0
647.49,434.0
647.82,443.0
648.15,441.0
648.48,436.0
648.81,441.0
649.14,432.0
649.47,439.0
649.80,434.0
650.13,435.0
650.46,439.0
650.79,424.0
651.12,422.0
651.45,430.0
651.78,440.0
652.11,438.0
652.44,425.0
652.77,427.0
653.10,435.0
653.43,428.0
653.76,441.0
654.09,451.0
654.42,691.0
654.75,1170.0
655.08,1439.0
655.41,1542.0
655.74,1224.0
656.07,1001.0
656.39,839.0
656.72,704.0
657.05,590.0
657.38,509.0
657.71,470.0
658.04,445.0
658.37,448.0
658.70,436.0
659.03,427.0
659.36,427.0
659.68,421.0
660.01,422.0
660.34,412.0
660.67,420.0
661.00,420.0
661.33,412.0
661.66,409.0
661.98,419.0
662.31,410.0
662.64,408.0
662.97,416.0
663.30,408.0
663.63,411.0
663.95,415.0
664.28,413.0
664.61,419.0
664.94,419.0
665.27,419.0
665.59,405.0
665.92,412.0
666.25,401.0
666.58,408.0
666.91,412.0
667.23,402.0
667.56,400.0
667.89,411.0
668.22,413.0
668.54,413.0
668.87,402.0
669.20,409.0
669.53,419.0
669.85,411.0
670.18,407.0
670.51,404.0
670.83,414.0
671.16,426.0
671.49,415.0
671.82,424.0
672.14,414.0
672.47,415.0
672.80,423.0
673.12,414.0
673.45,410.0
673.78,396.0
674.10,401.0
674.43,405.0
674.76,395.0
675.08,415.0
675.41,393.0
675.74,402.0
676.06,405.0
676.39,401.0
676.72,402.0
677.04,412.0
677.37,404.0
677.69,408.0
678.02,403.0
678.35,407.0
678.67,400.0
679.00,408.0
679.32,408.0
679.65,406.0
679.98,401.0
680.30,394.0
680.63,393.0
680.95,399.0
681.28,403.0
681.60,386.0
681.93,394.0
682.26,383.0
682.58,387.0
682.91,395.0
683.23,405.0
683.56,404.0
683.88,406.0
684.21,407.0
684.53,409.0
684.86,418.0
685.18,413.0
685.51,409.0
685.83,405.0
686.16,386.0
686.48,383.0
686.81,388.0
687.13,382.0
687.46,387.0
687.78,383.0
688.11,369.0
688.43,387.0
688.76,389.0
689.08,373.0
689.41,372.0
689.73,376.0
690.05,383.0
690.38,383.0
690.70,367.0
691.03,373.0
691.35,378.0
691.68,371.0
692.00,379.0
692.32,381.0
692.65,373.0
692.97,381.0
693.29,374.0
693.62,366.0
693.94,364.0
694.27,367.0
694.59,363.0
694.91,366.0
695.24,372.0
695.56,358.0
695.88,359.0
696.21,375.0
696.53,360.0
696.85,379.0
697.18,362.0
697.50,361.0
697.82,365.0
698.15,357.0
698.47,358.0
698.79,357.0
699.12,349.0
699.44,355.0
699.76,349.0
700.09,355.0
700.41,353.0
700.73,342.0
701.05,348.0
701.38,345.0
701.70,355.0
702.02,347.0
702.34,340.0
702.67,351.0
702.99,348.0
703.31,340.0
703.63,345.0
703.96,341.0
704.28,344.0
704.60,335.0
704.92,337.0
705.25,336.0
705.57,343.0
705.89,344.0
706.21,356.0
706.53,361.0
706.86,355.0
707.18,362.0
707.50,359.0
707.82,360.0
708.14,353.0
708.46,355.0
708.79,338.0
709.11,347.0
709.43,339.0
709.75,353.0
710.07,349.0
710.39,341.0
710.71,338.0
711.04,330.0
711.36,336.0
711.68,335.0
712.00,335.0
712.32,338.0
712.64,342.0
712.96,333.0
713.28,337.0
713.60,343.0
713.92,340.0
714.24,334.0
714.57,338.0
714.89,332.0
715.21,327.0
715.53,325.0
715.85,311.0
716.17,313.0
716.49,324.0
716.81,314.0
717.13,319.0
717.45,322.0
717.77,318.0
718.09,321.0
718.41,323.0
718.73,320.0
719.05,320.0
719.37,313.0
719.69,316.0
720.01,327.0
720.33,314.0
720.65,320.0
720.97,314.0
721.29,313.0
721.61,315.0
721.93,313.0
722.25,304.0
722.57,306.0
722.89,301.0
723.21,306.0
723.52,303.0
723.84,299.0
724.16,309.0
724.48,309.0
724.80,314.0
725.12,319.0
725.44,312.0
725.76,309.0
726.08,306.0
726.40,304.0
726.72,304.0
727.03,306.0
727.35,311.0
727.67,299.0
727.99,309.0
728.31,303.0
728.63,293.0
728.95,302.0
729.26,302.0
729.58,304.0
729.90,310.0
730.22,291.0
730.54,308.0
730.86,310.0
731.17,304.0
731.49,304.0
731.81,317.0
732.13,303.0
732.45,292.0
732.76,296.0
733.08,300.0
733.40,305.0
733.72,299.0
734.03,309.0
734.35,306.0
734.67,301.0
734.99,296.0
735.30,300.0
735.62,300.0
735.94,303.0
736.26,298.0
736.57,300.0
736.89,292.0
737.21,286.0
737.53,285.0
737.84,278.0
738.16,283.0
738.48,282.0
738.79,291.0
739.11,285.0
739.43,295.0
739.74,283.0
740.06,281.0
740.38,281.0
740.69,275.0
741.01,270.0
741.33,266.0
741.64,271.0
741.96,263.0
742.28,273.0
742.59,267.0
742.91,260.0
743.23,269.0
743.54,262.0
743.86,256.0
744.17,256.0
744.49,257.0
744.81,254.0
745.12,257.0
745.44,252.0
745.75,254.0
746.07,256.0
746.38,251.0
746.70,256.0
747.02,252.0
747.33,243.0
747.65,247.0
747.96,251.0
748.28,244.0
748.59,250.0
748.91,249.0
749.22,254.0
749.54,254.0
749.85,251.0
750.17,255.0
750.48,255.0
750.80,254.0
751.11,244.0
751.43,252.0
751.74,244.0
752.06,244.0
752.37,250.0
752.69,243.0
753.00,247.0
753.32,253.0
753.63,259.0
753.95,253.0
754.26,250.0
754.58,252.0
754.89,244.0
755.20,247.0
755.52,250.0
755.83,257.0
756.15,256.0
756.46,266.0
756.78,259.0
757.09,262.0
757.40,271.0
757.72,268.0
758.03,249.0
758.34,251.0
758.66,255.0
758.97,250.0
759.29,251.0
759.60,245.0
759.91,250.0
760.23,254.0
760.54,252.0
760.85,246.0
761.17,260.0
761.48,242.0
761.79,241.0
762.11,240.0
762.42,234.0
762.73,238.0
763.05,243.0
763.36,244.0
763.67,237.0
763.98,244.0
764.30,252.0
764.61,248.0
764.92,247.0
765.23,241.0
765.55,242.0
765.86,224.0
766.17,235.0
766.48,222.0
766.80,226.0
767.11,226.0
767.42,228.0
767.73,221.0
768.05,237.0
768.36,243.0
768.67,235.0
768.98,226.0
769.29,230.0
769.61,223.0
769.92,225.0
770.23,237.0
770.54,225.0
770.85,222.0
771.17,228.0
771.48,223.0
771.79,220.0
772.10,220.0
772.41,222.0
772.72,217.0
773.03,210.0
773.35,211.0
773.66,212.0
773.97,212.0
774.28,207.0
774.59,201.0
774.90,207.0
775.21,208.0
775.52,206.0
775.83,201.0
776.15,202.0
776.46,199.0
776.77,202.0
777.08,197.0
777.39,196.0
777.70,197.0
778.01,203.0
778.32,209.0
778.63,203.0
778.94,201.0
779.25,202.0
779.56,201.0
779.87,199.0
780.18,200.0
780.49,203.0
780.80,201.0
781.11,196.0
781.42,195.0
781.73,200.0
782.04,198.0
782.35,189.0
782.66,193.0
782.97,197.0
783.28,204.0
783.59,195.0
783.90,191.0
784.21,177.0
784.52,185.0
784.83,184.0
785.14,190.0
785.45,184.0
785.76,185.0
786.06,183.0
786.37,194.0
786.68,185.0
786.99,188.0
787.30,180.0
787.61,178.0
787.92,190.0
788.23,187.0
788.54,182.0
788.84,181.0
789.15,180.0
789.46,174.0
789.77,173.0
790.08,183.0
790.39,171.0
790.70,185.0
791.00,176.0
791.31,175.0
791.62,177.0
791.93,168.0
792.24,173.0
792.54,176.0
792.85,174.0
793.16,177.0
793.47,177.0
793.78,186.0
794.08,182.0
794.39,170.0
794.70,173.0
795.01,171.0
795.31,170.0
795.62,161.0
795.93,166.0
796.24,163.0
796.54,167.0
796.85,168.0
797.16,161.0
797.47,164.0
797.77,162.0
798.08,162.0
798.39,162.0
798.69,153.0
799.00,160.0
799.31,155.0
799.62,153.0
799.92,152.0
800.23,158.0
800.54,158.0
800.84,154.0
801.15,153.0
801.46,153.0
801.76,148.0
802.07,151.0
802.37,150.0
802.68,147.0
802.99,151.0
803.29,153.0
803.60,149.0
803.91,143.0
804.21,146.0
804.52,150.0
804.82,145.0
805.13,146.0
805.44,151.0
805.74,148.0
806.05,151.0
806.35,153.0
806.66,144.0
806.96,144.0
807.27,144.0
807.57,143.0
807.88,148.0
808.19,147.0
808.49,144.0
808.80,147.0
809.10,142.0
809.41,142.0
809.71,139.0
810.02,139.0
810.32,137.0
810.63,133.0
810.93,138.0
811.24,139.0
811.54,143.0
811.85,141.0
812.15,136.0
812.45,137.0
812.76,137.0
813.06,134.0
813.37,136.0
813.67,140.0
813.98,132.0
814.28,130.0
814.58,130.0
814.89,126.0
815.19,129.0
815.50,127.0
815.80,128.0
816.11,130.0
816.41,127.0
816.71,131.0
817.02,133.0
817.32,130.0
817.62,132.0
817.93,127.0
818.23,122.0
818.53,125.0
818.84,131.0
819.14,130.0
819.44,130.0
819.75,129.0
820.05,125.0
820.35,125.0
820.66,129.0
820.96,125.0
821.26,125.0
821.57,125.0
821.87,120.0
822.17,123.0
822.48,127.0
822.78,129.0
823.08,125.0
823.38,123.0
823.69,122.0
823.99,123.0
824.29,115.0
824.59,122.0
824.90,117.0
825.20,125.0
825.50,126.0
825.80,124.0
826.10,118.0
826.41,118.0
826.71,122.0
827.01,121.0
827.31,121.0
827.61,119.0
827.92,119.0
828.22,118.0
828.52,121.0
828.82,118.0
829.12,119.0
829.42,116.0
829.73,112.0
830.03,112.0
830.33,113.0
830.63,115.0
830.93,115.0
831.23,114.0
831.53,119.0
831.83,111.0
832.14,112.0
832.44,113.0
832.74,107.0
833.04,113.0
833.34,111.0
833.64,119.0
833.94,111.0
834.24,110.0
834.54,113.0
834.84,111.0
835.14,109.0
835.44,110.0
835.74,109.0
836.04,112.0
836.34,108.0
836.64,111.0
836.95,108.0
837.25,110.0
837.55,109.0
837.85,105.0
838.15,106.0
838.45,103.0
838.74,108.0
839.04,103.0
839.34,104.0
839.64,105.0
839.94,107.0
840.24,109.0
840.54,103.0
840.84,106.0
841.14,101.0
841.44,96.0
841.74,102.0
842.04,107.0
842.34,102.0
842.64,103.0
842.94,100.0
843.24,103.0
843.53,105.0
843.83,104.0
844.13,97.0
844.43,107.0
844.73,104.0
845.03,102.0
845.33,101.0
845.63,102.0
845.92,104.0
846.22,95.0
846.52,101.0
846.82,98.0
847.12,102.0
847.42,97.0
847.71,99.0
848.01,102.0
848.31,98.0
848.61,98.0
848.91,96.0
849.20,101.0
849.50,93.0
849.80,93.0
850.10,97.0
850.39,95.0
850.69,97.0
850.99,96.0
851.29,99.0
851.59,93.0
851.88,97.0
852.18,94.0
852.48,96.0
852.77,94.0
853.07,97.0
853.37,96.0
853.67,92.0
853.96,100.0
854.26,100.0
854.56,100.0
854.85,95.0
855.15,96.0
855.45,98.0
855.74,96.0
856.04,92.0
856.34,98.0
856.63,94.0
856.93,94.0
857.23,92.0
857.52,93.0
857.82,93.0
858.11,92.0
858.41,92.0
858.71,91.0
859.00,83.0
859.30,90.0
859.59,90.0
859.89,86.0
860.19,91.0
860.48,86.0
860.78,91.0
861.07,91.0
861.37,94.0
861.66,86.0
861.96,88.0
862.26,87.0
862.55,91.0
862.85,87.0
863.14,91.0
863.44,86.0
863.73,85.0
864.03,84.0
864.32,84.0
864.62,89.0
864.91,86.0
865.21,87.0
865.50,87.0
865.80,84.0
866.09,86.0
866.39,85.0
866.68,83.0
866.97,86.0
867.27,82.0
867.56,85.0
867.86,83.0
868.15,90.0
868.45,83.0
868.74,84.0
869.03,85.0
869.33,85.0
869.62,86.0
869.92,79.0
870.21,79.0
870.50,89.0
870.80,79.0
871.09,84.0
871.39,81.0
871.68,81.0
871.97,80.0
872.27,85.0
872.56,86.0
872.85,82.0
873.15,85.0
873.44,83.0
873.73,84.0
874.03,80.0
874.32,85.0
874.61,83.0
874.90,85.0
875.20,82.0
875.49,79.0
875.78,77.0
